BioWare Version 5.3.0.7 Export
Device:	4827095 9260AA6
Samples (#):	4000
Rate (Hz):	1000.000000
Contact period start (sample #):	0
Contact period end (sample #):	3999
Contact period start time (s):	0.000000
Contact period end time (s):	3.999000
First sample time (s):	0.000000
Normalized force (N):	2.549780
Normalized length (m):	1.000000
File Information
Date	May 25, 2017  16:07:29
Name	
ID	
Classification	
Description	
abs time (s)	Fz
	N
0.000000	767.465595
0.001000	768.740507
0.002000	768.894931
0.003000	767.786833
0.004000	768.259993
0.005000	767.783321
0.006000	768.901292
0.007000	768.419270
0.008000	769.537241
0.009000	769.224037
0.010000	770.174697
0.011000	770.655212
0.012000	769.060569
0.013000	771.134053
0.014000	770.334140
0.015000	771.133722
0.016000	770.655543
0.017000	772.087893
0.018000	772.248678
0.019000	770.964903
0.020000	772.083040
0.021000	771.921079
0.022000	772.247336
0.023000	771.923763
0.024000	772.559711
0.025000	772.566404
0.026000	771.606534
0.027000	773.037211
0.028000	771.287814
0.029000	771.926777
0.030000	772.402770
0.031000	773.199338
0.032000	771.283623
0.033000	771.132049
0.034000	771.290150
0.035000	772.565228
0.036000	770.811308
0.037000	770.812981
0.038000	771.608886
0.039000	771.131039
0.040000	770.014741
0.041000	769.533894
0.042000	770.171019
0.043000	769.696352
0.044000	769.699698
0.045000	768.260158
0.046000	768.895941
0.047000	768.582059
0.048000	768.904141
0.049000	767.152060
0.050000	768.585918
0.051000	767.629063
0.052000	766.835345
0.053000	766.193035
0.054000	766.353323
0.055000	765.879666
0.056000	766.040451
0.057000	766.351815
0.058000	766.039953
0.059000	765.718550
0.060000	764.923656
0.061000	765.083777
0.062000	765.397146
0.063000	763.967811
0.064000	764.766217
0.065000	764.766051
0.066000	765.402166
0.067000	765.241713
0.068000	764.921485
0.069000	766.992286
0.070000	765.088962
0.071000	764.449833
0.072000	764.130947
0.073000	765.403507
0.074000	764.765720
0.075000	765.080431
0.076000	766.839701
0.077000	764.921485
0.078000	765.882183
0.079000	766.037949
0.080000	766.833340
0.081000	766.038114
0.082000	765.880842
0.083000	765.081094
0.084000	765.400658
0.085000	767.154578
0.086000	765.402166
0.087000	766.841374
0.088000	768.279076
0.089000	767.635259
0.090000	768.114779
0.091000	767.954657
0.092000	767.317201
0.093000	767.638108
0.094000	769.070292
0.095000	767.947799
0.096000	768.436514
0.097000	768.427983
0.098000	767.953481
0.099000	768.908497
0.100000	769.553988
0.101000	768.431992
0.102000	768.595294
0.103000	769.395042
0.104000	770.819855
0.105000	769.867191
0.106000	769.705562
0.107000	770.504813
0.108000	770.352394
0.109000	770.502295
0.110000	770.029483
0.111000	770.183244
0.112000	771.142269
0.113000	771.144605
0.114000	771.464169
0.115000	772.267098
0.116000	772.258898
0.117000	772.254210
0.118000	772.743272
0.119000	772.744432
0.120000	773.062489
0.121000	772.101625
0.122000	773.379552
0.123000	772.577965
0.124000	774.013165
0.125000	774.334387
0.126000	773.371850
0.127000	774.173271
0.128000	774.498352
0.129000	775.610972
0.130000	774.812731
0.131000	775.448846
0.132000	774.973682
0.133000	775.771093
0.134000	775.610806
0.135000	776.238886
0.136000	775.291242
0.137000	775.289071
0.138000	776.880699
0.139000	776.730616
0.140000	776.409212
0.141000	777.366399
0.142000	776.404027
0.143000	777.039810
0.144000	776.092165
0.145000	775.931712
0.146000	776.727435
0.147000	775.931712
0.148000	776.411217
0.149000	777.676588
0.150000	776.730284
0.151000	776.567827
0.152000	776.406198
0.153000	775.771425
0.154000	775.444489
0.155000	774.655127
0.156000	776.561797
0.157000	777.202599
0.158000	776.086965
0.159000	777.042312
0.160000	777.201092
0.161000	775.763557
0.162000	776.404690
0.163000	775.288227
0.164000	776.246423
0.165000	775.451016
0.166000	775.447504
0.167000	775.771756
0.168000	776.085292
0.169000	776.242398
0.170000	774.492654
0.171000	775.450850
0.172000	776.087130
0.173000	775.763557
0.174000	775.604445
0.175000	775.610127
0.176000	775.768742
0.177000	777.361711
0.178000	775.770249
0.179000	776.729274
0.180000	777.198740
0.181000	777.525676
0.182000	777.993800
0.183000	777.206609
0.184000	777.994645
0.185000	777.841381
0.186000	778.473818
0.187000	779.434682
0.188000	778.315535
0.189000	779.271893
0.190000	778.477164
0.191000	779.747720
0.192000	779.587267
0.193000	780.070631
0.194000	780.389698
0.195000	780.704575
0.196000	781.175382
0.197000	780.545795
0.198000	782.937502
0.199000	781.823374
0.200000	783.408309
0.201000	781.821701
0.202000	782.938165
0.203000	784.684216
0.204000	784.685060
0.205000	783.406968
0.206000	783.728205
0.207000	784.529626
0.208000	784.369008
0.209000	784.367500
0.210000	784.526777
0.211000	785.004956
0.212000	784.845000
0.213000	785.480618
0.214000	784.844835
0.215000	784.680870
0.216000	785.325184
0.217000	785.479110
0.218000	785.638553
0.219000	785.638553
0.220000	785.480949
0.221000	785.963137
0.222000	786.280697
0.223000	784.838474
0.224000	785.797167
0.225000	786.435121
0.226000	786.432106
0.227000	786.749997
0.228000	786.437125
0.229000	786.438301
0.230000	785.959791
0.231000	786.434789
0.232000	786.434955
0.233000	786.112707
0.234000	785.954771
0.235000	786.592890
0.236000	787.231854
0.237000	787.075923
0.238000	787.075426
0.239000	785.800514
0.240000	785.318657
0.241000	785.316984
0.242000	785.640739
0.243000	785.160390
0.244000	785.165575
0.245000	784.361305
0.246000	785.320330
0.247000	784.364486
0.248000	784.685392
0.249000	784.521924
0.250000	784.525436
0.251000	785.321838
0.252000	784.364817
0.253000	785.156365
0.254000	783.728371
0.255000	785.164565
0.256000	784.048433
0.257000	784.684382
0.258000	784.205208
0.259000	783.571430
0.260000	784.521758
0.261000	783.731717
0.262000	783.415168
0.263000	784.047604
0.264000	783.724859
0.265000	782.934818
0.266000	781.823209
0.267000	783.255890
0.268000	782.775210
0.269000	782.774200
0.270000	782.936492
0.271000	782.301719
0.272000	782.139427
0.273000	782.298704
0.274000	780.862676
0.275000	781.338503
0.276000	781.500132
0.277000	779.905158
0.278000	781.505483
0.279000	780.867364
0.280000	782.137919
0.281000	780.700881
0.282000	779.753236
0.283000	780.544453
0.284000	781.342362
0.285000	780.867695
0.286000	781.186763
0.287000	781.183748
0.288000	781.500463
0.289000	780.698379
0.290000	780.867695
0.291000	781.025631
0.292000	782.617093
0.293000	781.182241
0.294000	781.498956
0.295000	782.616761
0.296000	781.820360
0.297000	782.613415
0.298000	782.452796
0.299000	782.770688
0.300000	781.660072
0.301000	781.179889
0.302000	782.295358
0.303000	781.020777
0.304000	781.658399
0.305000	781.333981
0.306000	782.938330
0.307000	782.777712
0.308000	781.502800
0.309000	781.181893
0.310000	781.658233
0.311000	782.448771
0.312000	782.136909
0.313000	783.568415
0.314000	781.656394
0.315000	781.818852
0.316000	782.935647
0.317000	781.016934
0.318000	782.295524
0.319000	781.501292
0.320000	782.294513
0.321000	782.458147
0.322000	782.454801
0.323000	781.976290
0.324000	780.863173
0.325000	781.020446
0.326000	782.297860
0.327000	781.974617
0.328000	782.292675
0.329000	782.620439
0.330000	782.452962
0.331000	782.773521
0.332000	782.138914
0.333000	782.453128
0.334000	781.502634
0.335000	782.454635
0.336000	782.777877
0.337000	781.979139
0.338000	781.655219
0.339000	782.295855
0.340000	782.453293
0.341000	781.657057
0.342000	782.294182
0.343000	783.574279
0.344000	783.246846
0.345000	783.727195
0.346000	784.048433
0.347000	781.336996
0.348000	782.943184
0.349000	783.256553
0.350000	782.933974
0.351000	782.772526
0.352000	784.204364
0.353000	784.521758
0.354000	782.772858
0.355000	782.935813
0.356000	782.928623
0.357000	783.406123
0.358000	784.844835
0.359000	783.413660
0.360000	784.205706
0.361000	783.886985
0.362000	782.619097
0.363000	782.772526
0.364000	783.728371
0.365000	784.366324
0.366000	783.890995
0.367000	783.248519
0.368000	782.454966
0.369000	784.844835
0.370000	784.046926
0.371000	782.776370
0.372000	784.047936
0.373000	783.728371
0.374000	782.611576
0.375000	783.090418
0.376000	781.338006
0.377000	782.139427
0.378000	782.141100
0.379000	781.981657
0.380000	781.180236
0.381000	781.497614
0.382000	780.226562
0.383000	781.024636
0.384000	781.023295
0.385000	781.182406
0.386000	780.226064
0.387000	779.275571
0.388000	780.708418
0.389000	777.995971
0.390000	776.880004
0.391000	777.833679
0.392000	778.949479
0.393000	777.522993
0.394000	777.841216
0.395000	776.405685
0.396000	775.132959
0.397000	776.567645
0.398000	775.926346
0.399000	776.244569
0.400000	775.452523
0.401000	775.932541
0.402000	774.493830
0.403000	774.491494
0.404000	773.701784
0.405000	774.340416
0.406000	774.970667
0.407000	772.581975
0.408000	773.697941
0.409000	773.855711
0.410000	773.860564
0.411000	772.894515
0.412000	774.181139
0.413000	773.223621
0.414000	773.225294
0.415000	773.379055
0.416000	773.701287
0.417000	772.428893
0.418000	773.381557
0.419000	771.627637
0.420000	773.386245
0.421000	773.704633
0.422000	773.064841
0.423000	772.900876
0.424000	772.903047
0.425000	773.542010
0.426000	773.380215
0.427000	772.750130
0.428000	773.855379
0.429000	774.338743
0.430000	775.300949
0.431000	773.848687
0.432000	774.333724
0.433000	774.494177
0.434000	775.450353
0.435000	774.970004
0.436000	773.855711
0.437000	775.447504
0.438000	773.532468
0.439000	775.446841
0.440000	775.926014
0.441000	775.286885
0.442000	776.563305
0.443000	776.087809
0.444000	776.086633
0.445000	776.243740
0.446000	775.129281
0.447000	776.250764
0.448000	776.720577
0.449000	776.083287
0.450000	778.151752
0.451000	776.878181
0.452000	777.357189
0.453000	777.839542
0.454000	777.834026
0.455000	777.357355
0.456000	777.357520
0.457000	777.673904
0.458000	777.514793
0.459000	778.948816
0.460000	778.629418
0.461000	779.267205
0.462000	778.151404
0.463000	777.673739
0.464000	776.880683
0.465000	777.354671
0.466000	778.306838
0.467000	778.308843
0.468000	777.833182
0.469000	776.872649
0.470000	779.104416
0.471000	779.423302
0.472000	779.257829
0.473000	778.460930
0.474000	780.220201
0.475000	779.423965
0.476000	779.099215
0.477000	779.423633
0.478000	779.098884
0.479000	779.110098
0.480000	779.734832
0.481000	781.176045
0.482000	780.530058
0.483000	780.220698
0.484000	780.533901
0.485000	780.854476
0.486000	779.574711
0.487000	780.053387
0.488000	780.212664
0.489000	781.171026
0.490000	781.174538
0.491000	782.127036
0.492000	779.415765
0.493000	780.527375
0.494000	781.644004
0.495000	780.051713
0.496000	781.322103
0.497000	779.728968
0.498000	780.846939
0.499000	781.487576
0.500000	781.002870
0.501000	779.569525
0.502000	780.050206
0.503000	779.251966
0.504000	778.617690
0.505000	778.454569
0.506000	778.770275
0.507000	778.294779
0.508000	778.294613
0.509000	776.863936
0.510000	776.865112
0.511000	777.178316
0.512000	776.702986
0.513000	777.345296
0.514000	777.663353
0.515000	775.269807
0.516000	774.950408
0.517000	774.791628
0.518000	775.424909
0.519000	774.951915
0.520000	774.632351
0.521000	774.469562
0.522000	773.199669
0.523000	774.474415
0.524000	773.042231
0.525000	772.237298
0.526000	773.196323
0.527000	771.290150
0.528000	771.766656
0.529000	772.402604
0.530000	772.400766
0.531000	771.125356
0.532000	771.448599
0.533000	770.171516
0.534000	771.922752
0.535000	771.604364
0.536000	770.807796
0.537000	771.446594
0.538000	769.854122
0.539000	770.166828
0.540000	769.855464
0.541000	770.807631
0.542000	770.968581
0.543000	770.486393
0.544000	770.804782
0.545000	770.640651
0.546000	770.966908
0.547000	771.922587
0.548000	771.922587
0.549000	771.917899
0.550000	771.437218
0.551000	770.644163
0.552000	770.799762
0.553000	771.757446
0.554000	771.595485
0.555000	773.351922
0.556000	771.755938
0.557000	773.188454
0.558000	771.756949
0.559000	772.715129
0.560000	773.507853
0.561000	772.234780
0.562000	772.393726
0.563000	772.868558
0.564000	773.509692
0.565000	773.667130
0.566000	772.870563
0.567000	772.074493
0.568000	773.822399
0.569000	773.511034
0.570000	773.829422
0.571000	773.185440
0.572000	773.511531
0.573000	772.070815
0.574000	773.506677
0.575000	772.712115
0.576000	772.393394
0.577000	772.713622
0.578000	773.510189
0.579000	774.306094
0.580000	771.907016
0.581000	772.233107
0.582000	772.387696
0.583000	772.549491
0.584000	772.864865
0.585000	772.227078
0.586000	773.190293
0.587000	773.026660
0.588000	772.871060
0.589000	773.346390
0.590000	773.341371
0.591000	771.587617
0.592000	772.543959
0.593000	772.069308
0.594000	773.815359
0.595000	772.228253
0.596000	771.746894
0.597000	773.024987
0.598000	771.910693
0.599000	773.342712
0.600000	771.271067
0.601000	771.111790
0.602000	772.228088
0.603000	772.067469
0.604000	770.952678
0.605000	771.272409
0.606000	771.105429
0.607000	770.312373
0.608000	769.675928
0.609000	769.831527
0.610000	769.836712
0.611000	769.676093
0.612000	770.477183
0.613000	769.997497
0.614000	769.358202
0.615000	769.513470
0.616000	768.881033
0.617000	768.878019
0.618000	768.557957
0.619000	769.515309
0.620000	770.158116
0.621000	768.879526
0.622000	768.081120
0.623000	767.926696
0.624000	765.846851
0.625000	766.808559
0.626000	767.761224
0.627000	766.010650
0.628000	767.764073
0.629000	766.966163
0.630000	766.648603
0.631000	766.966495
0.632000	767.764901
0.633000	767.446678
0.634000	767.926862
0.635000	767.602278
0.636000	766.644594
0.637000	766.968665
0.638000	767.436971
0.639000	766.327200
0.640000	767.281206
0.641000	766.004455
0.642000	766.166913
0.643000	765.850363
0.644000	766.801022
0.645000	766.487487
0.646000	767.121763
0.647000	767.440317
0.648000	766.807715
0.649000	767.445171
0.650000	768.238889
0.651000	768.879692
0.652000	768.718576
0.653000	768.074593
0.654000	768.078105
0.655000	768.712546
0.656000	769.990804
0.657000	769.191388
0.658000	767.912632
0.659000	770.314212
0.660000	770.938781
0.661000	769.826492
0.662000	770.145228
0.663000	772.373633
0.664000	772.057414
0.665000	772.215516
0.666000	772.848963
0.667000	772.219541
0.668000	771.898303
0.669000	773.488589
0.670000	772.850801
0.671000	773.967099
0.672000	773.804973
0.673000	773.011752
0.674000	774.438073
0.675000	774.282473
0.676000	775.237986
0.677000	776.032881
0.678000	776.356123
0.679000	774.605218
0.680000	775.880296
0.681000	776.032715
0.682000	775.396932
0.683000	776.189822
0.684000	774.921934
0.685000	775.716165
0.686000	776.030876
0.687000	776.830624
0.688000	776.673683
0.689000	776.357465
0.690000	777.149344
0.691000	776.360479
0.692000	775.556541
0.693000	776.834302
0.694000	776.830956
0.695000	774.922612
0.696000	775.882135
0.697000	777.155374
0.698000	777.792830
0.699000	776.038744
0.700000	775.719843
0.701000	775.398274
0.702000	775.728556
0.703000	776.034222
0.704000	774.448790
0.705000	774.919266
0.706000	774.602551
0.707000	773.970114
0.708000	774.125548
0.709000	774.290176
0.710000	774.286332
0.711000	774.286167
0.712000	773.809495
0.713000	773.329146
0.714000	773.650881
0.715000	773.175054
0.716000	773.176395
0.717000	773.495960
0.718000	773.492780
0.719000	773.014767
0.720000	773.334165
0.721000	772.375306
0.722000	771.897972
0.723000	772.535759
0.724000	772.065614
0.725000	773.169869
0.726000	773.014435
0.727000	772.058756
0.728000	772.699890
0.729000	771.416281
0.730000	772.371794
0.731000	772.214687
0.732000	772.534252
0.733000	773.487926
0.734000	773.171873
0.735000	772.530905
0.736000	774.131064
0.737000	774.598526
0.738000	773.809495
0.739000	774.760320
0.740000	775.403293
0.741000	776.514903
0.742000	775.713482
0.743000	774.918588
0.744000	775.547844
0.745000	775.874101
0.746000	775.556706
0.747000	776.828438
0.748000	776.672838
0.749000	777.782444
0.750000	777.786966
0.751000	778.420728
0.752000	778.261286
0.753000	777.309119
0.754000	777.628683
0.755000	778.737113
0.756000	778.578167
0.757000	777.618810
0.758000	779.055004
0.759000	779.062028
0.760000	779.851406
0.761000	779.376573
0.762000	780.491364
0.763000	779.855083
0.764000	778.737113
0.765000	778.896224
0.766000	778.894385
0.767000	778.737278
0.768000	778.579840
0.769000	779.375563
0.770000	780.012853
0.771000	780.651485
0.772000	780.649978
0.773000	780.489856
0.774000	779.690274
0.775000	780.327398
0.776000	779.694465
0.777000	781.445535
0.778000	781.121117
0.779000	781.283409
0.780000	781.604647
0.781000	782.079976
0.782000	781.918860
0.783000	781.283575
0.784000	781.763592
0.785000	781.125805
0.786000	782.238756
0.787000	782.556814
0.788000	782.240927
0.789000	782.713573
0.790000	782.875534
0.791000	783.034479
0.792000	782.869007
0.793000	782.556135
0.794000	783.190576
0.795000	783.827866
0.796000	783.348512
0.797000	783.664399
0.798000	783.667579
0.799000	782.871343
0.800000	783.504111
0.801000	783.824007
0.802000	783.982456
0.803000	782.545252
0.804000	784.137542
0.805000	783.027274
0.806000	784.131181
0.807000	783.662047
0.808000	783.503598
0.809000	781.747011
0.810000	781.588728
0.811000	783.022752
0.812000	782.865645
0.813000	783.342648
0.814000	782.864303
0.815000	782.546246
0.816000	782.867152
0.817000	783.022918
0.818000	782.223004
0.819000	781.112388
0.820000	782.065731
0.821000	780.955282
0.822000	781.274017
0.823000	780.954950
0.824000	779.839331
0.825000	780.952946
0.826000	779.354626
0.827000	777.926797
0.828000	779.993755
0.829000	778.883486
0.830000	779.518591
0.831000	778.403634
0.832000	778.085577
0.833000	778.242353
0.834000	778.087748
0.835000	778.087085
0.836000	775.374140
0.837000	777.290351
0.838000	775.696554
0.839000	775.372135
0.840000	775.852650
0.841000	776.969445
0.842000	774.736187
0.843000	775.370794
0.844000	775.534759
0.845000	774.423149
0.846000	774.259018
0.847000	772.666215
0.848000	774.576910
0.849000	772.670405
0.850000	773.304847
0.851000	773.309866
0.852000	772.991974
0.853000	772.982433
0.854000	772.987287
0.855000	773.468812
0.856000	771.549585
0.857000	771.718073
0.858000	772.192061
0.859000	771.387128
0.860000	771.233201
0.861000	772.033281
0.862000	771.395162
0.863000	772.665717
0.864000	772.189890
0.865000	772.029769
0.866000	772.029603
0.867000	771.555781
0.868000	771.234543
0.869000	772.352514
0.870000	772.032452
0.871000	772.832697
0.872000	771.234874
0.873000	771.078612
0.874000	771.557288
0.875000	771.555615
0.876000	772.031276
0.877000	770.114568
0.878000	772.029603
0.879000	771.234874
0.880000	773.307530
0.881000	772.829683
0.882000	770.600102
0.883000	771.236382
0.884000	772.035964
0.885000	773.305178
0.886000	772.668566
0.887000	771.714726
0.888000	771.875677
0.889000	772.190222
0.890000	773.144062
0.891000	772.034788
0.892000	773.306685
0.893000	772.508611
0.894000	771.233036
0.895000	773.786703
0.896000	773.629099
0.897000	771.864131
0.898000	772.190553
0.899000	772.832366
0.900000	772.667225
0.901000	771.553942
0.902000	772.506772
0.903000	774.739202
0.904000	773.464455
0.905000	773.307183
0.906000	772.823156
0.907000	773.300656
0.908000	772.983775
0.909000	774.103584
0.910000	775.218043
0.911000	773.623567
0.912000	773.945815
0.913000	775.062941
0.914000	774.259350
0.915000	774.898313
0.916000	776.652895
0.917000	775.057756
0.918000	774.895795
0.919000	775.221224
0.920000	775.218540
0.921000	775.377320
0.922000	776.013269
0.923000	776.970787
0.924000	776.331161
0.925000	776.174219
0.926000	776.336346
0.927000	776.497296
0.928000	777.131903
0.929000	776.651222
