BioWare Version 5.3.0.7 Export
Device:	4827094 9260AA6	4827095 9260AA6
Samples (#):	5000	5000
Rate (Hz):	1000.000000	1000.000000
Contact period start (sample #):	0	0
Contact period end (sample #):	4999	4999
Contact period start time (s):	0.000000	0.000000
Contact period end time (s):	4.999000	4.999000
First sample time (s):	0.000000	0.000000
Normalized force (N):	11.393100	11.393100
Normalized length (m):	1.000000	1.000000
File Information
Date	Jun 15
Name	
ID	
Classification	
Description	
abs time (s)	Fz	Fz
	N	N
0.000000    778.494270
0.001000    779.124023
0.002000    779.756129
0.003000    778.484894
0.004000    780.402945
0.005000    778.169686
0.006000    779.454968
0.007000    780.720836
0.008000    778.809478
0.009000    780.081044
0.010000    779.133731
0.011000    779.766830
0.012000    780.078361
0.013000    781.038728
0.014000    780.720836
0.015000    779.763816
0.016000    780.392906
0.017000    780.078692
0.018000    780.399930
0.019000    780.403276
0.020000    780.081707
0.021000    779.448939
0.022000    779.767493
0.023000    781.669144
0.024000    781.675505
0.025000    778.803780
0.026000    779.124686
0.027000    778.164651
0.028000    778.488904
0.029000    779.128696
0.030000    781.668812
0.031000    777.531220
0.032000    778.807458
0.033000    780.714144
0.034000    779.115974
0.035000    780.082370
0.036000    779.439563
0.037000    781.346912
0.038000    780.085385
0.039000    780.399598
0.040000    779.111302
0.041000    780.079024
0.042000    781.030015
0.043000    779.748079
0.044000    779.755103
0.045000    778.790727
0.046000    777.524859
0.047000    780.066965
0.048000    779.430519
0.049000    779.115974
0.050000    780.387539
0.051000    778.472835
0.052000    779.112296
0.053000    780.708114
0.054000    779.108618
0.055000    777.512469
0.056000    780.380847
0.057000    779.421143
0.058000    779.430519
0.059000    780.698738
0.060000    778.473167
0.061000    778.791721
0.062000    778.791058
0.063000    780.059609
0.064000    781.019645
0.065000    779.734694
0.066000    781.970636
0.067000    779.102589
0.068000    780.059609
0.069000    778.785029
0.070000    778.148914
0.071000    780.049902
0.072000    778.781351
0.073000    779.099243
0.074000    779.417134
0.075000    779.741718
0.076000    777.503093
0.077000    778.778005
0.078000    778.456436
0.079000    781.010932
0.080000    779.099243
0.081000    779.728664
0.082000    778.778336
0.083000    778.132515
0.084000    779.408090
0.085000    779.086189
0.086000    778.456767
0.087000    778.771644
0.088000    778.765946
0.089000    778.128837
0.090000    778.767966
0.091000    779.085858
0.092000    777.175163
0.093000    778.764289
0.094000    777.496400
0.095000    779.719620
0.096000    777.168470
0.097000    778.755576
0.098000    777.817307
0.099000    777.486362
0.100000    778.762600
0.101000    777.172148
0.102000    776.523312
0.103000    778.126485
0.104000    776.221488
0.105000    776.844549
0.106000    776.218474
0.107000    776.840872
0.108000    776.523312
0.109000    775.565297
0.110000    778.758590
0.111000    775.890544
0.112000    775.883520
0.113000    775.883188
0.114000    776.198728
0.115000    774.926831
0.116000    774.604930
0.117000    775.565960
0.118000    776.204757
0.119000    776.522649
0.120000    776.846901
0.121000    774.611622
0.122000    776.841203
0.123000    776.516951
0.124000    777.477649
0.125000    776.513273
0.126000    777.159095
0.127000    776.195382
0.128000    776.201743
0.129000    775.562945
0.130000    774.926499
0.131000    776.516951
0.132000    776.835174
0.133000    775.883851
0.134000    776.838520
0.135000    774.293731
0.136000    774.280346
0.137000    775.241376
0.138000    774.287701
0.139000    775.881168
0.140000    777.155417
0.141000    776.516288
0.142000    773.969810
0.143000    774.923484
0.144000    775.867120
0.145000    774.599232
0.146000    774.281009
0.147000    776.520297
0.148000    776.191704
0.149000    775.231669
0.150000    776.504892
0.151000    773.645226
0.152000    774.914109
0.153000    773.327335
0.154000    773.963449
0.155000    774.599895
0.156000    774.910762
0.157000    775.241376
0.158000    774.599563
0.159000    775.235015
0.160000    776.507244
0.161000    777.150050
0.162000    777.467279
0.163000    774.911094
0.164000    774.287038
0.165000    775.873812
0.166000    775.553901
0.167000    774.908079
0.168000    776.189352
0.169000    774.920801
0.170000    774.911425
0.171000    775.553901
0.172000    777.143026
0.173000    775.229317
0.174000    775.235346
0.175000    776.193030
0.176000    775.547208
0.177000    776.186337
0.178000    776.823115
0.179000    776.504560
0.180000    774.275311
0.181000    776.514930
0.182000    776.196376
0.183000    775.238361
0.184000    775.875138
0.185000    776.186669
0.186000    776.835174
0.187000    775.868446
0.188000    775.865431
0.189000    776.510921
0.190000    776.507575
0.191000    774.911757
0.192000    775.553238
0.193000    776.831827
0.194000    776.193030
0.195000    777.779472
0.196000    775.865100
0.197000    776.187332
0.198000    774.271965
0.199000    776.826129
0.200000    776.190347
0.201000    776.500883
0.202000    776.505223
0.203000    776.510921
0.204000    775.553901
0.205000    778.094349
0.206000    776.189352
0.207000    775.862416
0.208000    774.268950
0.209000    774.580480
0.210000    774.904733
0.211000    773.311266
0.212000    776.189684
0.213000    773.950727
0.214000    774.596549
0.215000    774.589856
0.216000    775.865763
0.217000    775.540847
0.218000    775.862416
0.219000    775.865431
0.220000    777.140343
0.221000    775.859070
0.222000    775.540516
0.223000    776.176630
0.224000    777.144021
0.225000    775.223287
0.226000    775.222956
0.227000    775.222956
0.228000    775.541179
0.229000    775.865763
0.230000    776.183986
0.231000    775.862085
0.232000    775.548203
0.233000    777.134314
0.234000    775.544525
0.235000    775.551217
0.236000    775.213249
0.237000    775.538495
0.238000    777.462244
0.239000    776.180639
0.240000    775.550223
0.241000    777.137660
0.242000    774.580812
0.243000    777.134645
0.244000    775.220273
0.245000    775.226965
0.246000    775.856055
0.247000    776.170932
0.248000    776.495516
0.249000    775.541179
0.250000    776.176962
0.251000    777.766750
0.252000    777.773443
0.253000    777.131962
0.254000    776.813076
0.255000    776.810061
0.256000    777.770760
0.257000    776.166591
0.258000    775.217589
0.259000    776.167917
0.260000    774.581143
0.261000    776.501214
0.262000    777.133982
0.263000    774.583164
0.264000    775.537501
0.265000    776.170601
0.266000    777.137991
0.267000    777.767413
0.268000    776.812745
0.269000    778.405879
0.270000    775.855724
0.271000    776.494522
0.272000    777.130967
0.273000    775.859070
0.274000    777.449190
0.275000    776.815428
0.276000    776.816754
0.277000    775.858739
0.278000    776.170269
0.279000    776.494522
0.280000    775.540847
0.281000    778.083979
0.282000    775.537833
0.283000    775.852046
0.284000    775.536838
0.285000    775.852378
0.286000    776.167586
0.287000    775.537833
0.288000    775.539853
0.289000    776.180308
0.290000    777.129973
0.291000    776.176299
0.292000    776.812082
0.293000    776.176962
0.294000    776.809067
0.295000    776.176630
0.296000    776.491507
0.297000    774.575477
0.298000    775.527131
0.299000    775.212586
0.300000    776.809398
0.301000    774.904733
0.302000    772.675152
0.303000    775.857744
0.304000    775.851715
0.305000    778.091003
0.306000    774.904733
0.307000    775.533492
0.308000    775.861091
0.309000    775.543531
0.310000    777.772117
0.311000    775.222293
0.312000    776.497868
0.313000    774.901055
0.314000    775.858076
0.315000    775.858407
0.316000    774.900392
0.317000    775.536507
0.318000    775.532829
0.319000    774.257254
0.320000    775.222293
0.321000    775.208908
0.322000    775.224645
0.323000    775.533160
0.324000    776.175636
0.325000    775.533160
0.326000    776.497205
0.327000    774.579155
0.328000    775.858407
0.329000    775.542536
0.330000    776.483820
0.331000    775.533492
0.332000    774.582501
0.333000    776.171958
0.334000    774.576140
0.335000    775.214937
0.336000    775.539853
0.337000    776.496542
0.338000    774.900061
0.339000    776.817780
0.340000    776.489849
0.341000    775.535844
0.342000    776.493859
0.343000    774.893368
0.344000    775.214275
0.345000    776.178319
0.346000    774.572131
0.347000    774.893368
0.348000    774.576471
0.349000    774.902744
0.350000    773.938700
0.351000    775.221630
0.352000    776.177325
0.353000    774.905427
0.354000    774.264278
0.355000    776.175304
0.356000    775.223982
0.357000    774.270639
0.358000    774.902744
0.359000    775.857081
0.360000    774.263283
0.361000    772.981679
0.362000    773.942046
0.363000    774.581506
0.364000    774.903407
0.365000    775.857081
0.366000    774.263615
0.367000    774.902744
0.368000    776.496210
0.369000    774.591214
0.370000    776.814433
0.371000    776.181665
0.372000    777.768108
0.373000    772.998410
0.374000    776.496210
0.375000    776.499557
0.376000    774.588199
0.377000    777.459592
0.378000    774.598569
0.379000    775.224645
0.380000    776.181334
0.381000    775.541873
0.382000    777.456246
0.383000    777.777152
0.384000    775.213943
0.385000    777.135008
0.386000    776.502903
0.387000    775.548566
0.388000    777.138686
0.389000    777.144715
0.390000    774.906422
0.391000    776.188026
0.392000    779.370950
0.393000    775.227328
0.394000    775.545882
0.395000    777.466284
0.396000    777.138354
0.397000    779.370618
0.398000    777.132656
0.399000    778.734835
0.400000    778.102399
0.401000    776.826824
0.402000    777.148724
0.403000    777.135671
0.404000    776.200417
0.405000    776.823809
0.406000    779.056736
0.407000    778.420290
0.408000    776.188358
0.409000    778.732152
0.410000    778.099384
0.411000    777.463270
0.412000    777.778478
0.413000    777.784176
0.414000    777.466284
0.415000    777.138686
0.416000    777.470294
0.417000    777.145710
0.418000    778.738182
0.419000    777.135671
0.420000    779.066443
0.421000    779.056736
0.422000    778.741859
0.423000    776.827487
0.424000    778.099053
0.425000    776.182660
0.426000    778.416944
0.427000    777.139017
0.428000    776.818443
0.429000    779.377974
0.430000    777.784176
0.431000    776.820794
0.432000    778.744543
0.433000    777.145710
0.434000    777.469962
0.435000    777.142363
0.436000    776.194387
0.437000    776.509264
0.438000    776.508932
0.439000    778.430329
0.440000    775.234683
0.441000    780.338009
0.442000    778.430992
0.443000    777.784839
0.444000    776.512942
0.445000    775.883520
0.446000    777.463601
0.447000    776.823809
0.448000    776.188358
0.449000    777.781161
0.450000    774.912783
0.451000    775.240050
0.452000    777.787854
0.453000    774.593897
0.454000    777.148061
0.455000    775.233026
0.456000    775.544888
0.457000    776.512279
0.458000    776.508601
0.459000    775.551249
0.460000    776.191041
0.461000    775.234683
0.462000    775.868477
0.463000    775.868477
0.464000    776.187695
0.465000    775.868809
0.466000    774.275342
0.467000    775.856418
0.468000    773.951421
0.469000    774.282035
0.470000    775.545219
0.471000    776.180339
0.472000    776.177325
0.473000    774.279683
0.474000    774.911457
0.475000    776.819800
0.476000    773.957451
0.477000    774.272328
0.478000    773.314976
0.479000    774.586541
0.480000    773.950427
0.481000    772.990392
0.482000    773.635882
0.483000    773.635882
0.484000    772.999767
0.485000    773.317659
0.486000    774.271996
0.487000    773.304605
0.488000    773.313981
0.489000    774.265304
0.490000    775.550586
0.491000    774.587204
0.492000    773.314976
0.493000    774.270670
0.494000    774.907779
0.495000    773.314644
0.496000    775.540216
0.497000    773.950759
0.498000    773.314976
0.499000    773.940720
0.500000    774.261295
0.501000    773.628858
0.502000    773.311629
0.503000    774.261958
0.504000    773.947412
0.505000    775.212286
0.506000    773.947081
0.507000    773.314313
0.508000    773.622828
0.509000    773.615804
0.510000    774.267656
0.511000    775.225008
0.512000    772.669154
0.513000    772.986383
0.514000    772.986383
0.515000    773.307620
0.516000    773.307289
0.517000    775.219310
0.518000    774.579186
0.519000    775.530509
0.520000    774.258280
0.521000    773.622497
0.522000    776.172321
0.523000    774.907448
0.524000    773.622165
0.525000    775.861122
0.526000    775.530509
0.527000    773.621503
0.528000    775.540879
0.529000    774.254934
0.530000    775.848069
0.531000    776.172984
0.532000    774.585878
0.533000    774.254934
0.534000    776.172321
0.535000    775.851415
0.536000    774.900755
0.537000    775.850420
0.538000    776.497899
0.539000    777.126327
0.540000    775.212286
0.541000    775.215300
0.542000    775.218647
0.543000    773.942740
0.544000    774.890717
0.545000    776.175336
0.546000    776.489881
0.547000    775.853767
0.548000    775.217984
0.549000    775.212286
0.550000    774.257617
0.551000    776.166291
0.552000    777.125664
0.553000    775.533192
0.554000    776.493559
0.555000    777.450911
0.556000    776.490544
0.557000    777.125664
0.558000    775.848069
0.559000    774.575508
0.560000    778.407268
0.561000    777.125664
0.562000    776.487198
0.563000    775.532860
0.564000    775.530177
0.565000    775.856781
0.566000    777.119634
0.567000    777.443555
0.568000    778.079338
0.569000    776.489218
0.570000    776.168312
0.571000    776.492896
0.572000    778.397230
0.573000    775.529183
0.574000    777.758432
0.575000    776.807772
0.576000    776.804095
0.577000    777.761778
0.578000    777.129673
0.579000    775.844059
0.580000    776.488886
0.581000    776.807772
0.582000    777.439878
0.583000    775.539221
0.584000    775.531866
0.585000    778.083016
0.586000    777.446570
0.587000    776.810456
0.588000    776.804758
0.589000    775.856781
0.590000    777.128016
0.591000    777.125332
0.592000    778.728174
0.593000    777.764130
0.594000    779.357928
0.595000    776.164303
0.596000    778.079338
0.597000    778.081690
0.598000    777.121323
0.599000    777.442892
0.600000    776.806778
0.601000    778.079007
0.602000    778.079007
0.603000    779.039373
0.604000    777.436200
0.605000    778.708097
0.606000    778.074997
0.607000    778.714790
0.608000    778.390869
0.609000    775.840050
0.610000    776.164303
0.611000    777.760784
0.612000    777.125001
0.613000    776.164303
0.614000    777.118640
0.615000    777.436531
0.616000    778.082684
0.617000    777.124669
0.618000    778.395904
0.619000    778.079007
0.620000    777.442229
0.621000    778.072314
0.622000    775.515135
0.623000    777.443224
0.624000    776.796739
0.625000    777.436200
0.626000    778.068968
0.627000    776.474839
0.628000    777.110953
0.629000    778.072314
0.630000    777.753428
0.631000    776.478185
0.632000    778.064959
0.633000    776.476165
0.634000    776.786369
0.635000    778.067311
0.636000    776.793393
0.637000    776.156616
0.638000    778.392557
0.639000    776.793062
0.640000    776.799754
0.641000    774.563812
0.642000    776.156947
0.643000    776.789384
0.644000    777.422152
0.645000    778.070657
0.646000    776.471824
0.647000    776.788389
0.648000    776.795413
0.649000    775.193234
0.650000    777.421821
0.651000    778.382187
0.652000    777.429507
0.653000    778.700410
0.654000    777.099920
0.655000    776.146246
0.656000    778.706440
0.657000    780.621475
0.658000    779.017639
0.659000    779.336193
0.660000    776.142568
0.661000    776.785706
0.662000    776.461122
0.663000    777.746404
0.664000    776.779014
0.665000    778.056609
0.666000    778.060287
0.667000    774.548770
0.668000    776.464137
0.669000    776.460459
0.670000    775.818647
0.671000    774.867324
0.672000    775.506785
0.673000    777.410787
0.674000    777.096242
0.675000    776.462480
0.676000    776.463474
0.677000    777.404426
0.678000    775.499430
0.679000    776.774010
0.680000    776.457113
0.681000    776.141242
0.682000    775.171831
0.683000    776.131535
0.684000    777.412808
0.685000    775.809966
0.686000    775.174846
0.687000    775.492406
0.688000    774.542078
0.689000    775.491411
0.690000    775.174183
0.691000    777.081863
0.692000    776.446080
0.693000    775.816327
0.694000    776.770664
0.695000    777.084215
0.696000    774.534059
0.697000    774.531044
0.698000    774.851288
0.699000    773.894599
0.700000    774.845254
0.701000    775.803273
0.702000    775.805953
0.703000    777.402769
0.704000    773.894930
0.705000    774.203114
0.706000    774.205798
0.707000    774.209144
0.708000    776.448096
0.709000    774.848273
0.710000    774.209140
0.711000    778.034870
0.712000    775.480374
0.713000    773.572698
0.714000    775.801943
0.715000    776.758632
0.716000    776.117483
0.717000    774.201785
0.718000    775.487067
0.719000    772.926873
0.720000    775.158805
0.721000    775.484052
0.722000    774.834221
0.723000    776.110459
0.724000    775.158805
0.725000    774.523354
0.726000    774.512984
0.727000    774.195755
0.728000    773.562655
0.729000    776.428019
0.730000    773.244101
0.731000    774.526037
0.732000    775.159137
0.733000    775.474013
0.734000    776.751940
0.735000    775.789221
0.736000    777.057110
0.737000    774.191414
0.738000    775.791573
0.739000    776.744916
0.740000    776.108802
0.741000    777.702600
0.742000    776.109465
0.743000    775.785212
0.744000    773.234062
0.745000    777.059461
0.746000    777.699585
0.747000    775.470004
0.748000    775.466326
0.749000    775.801280
0.750000    776.111816
0.751000    775.141080
0.752000    776.102772
0.753000    776.423015
0.754000    776.095748
0.755000    776.422684
0.756000    775.784218
0.757000    776.108802
0.758000    774.833558
0.759000    777.685869
0.760000    776.734214
0.761000    777.688552
0.762000    777.691898
0.763000    776.423015
0.764000    777.056115
0.765000    776.091408
0.766000    775.140748
0.767000    777.055452
0.768000    776.731200
0.769000    776.724176
0.770000    775.134719
0.771000    776.728185
0.772000    775.138065
0.773000    775.776862
0.774000    777.052106
0.775000    776.737229
0.776000    775.459302
0.777000    777.042067
0.778000    775.767155
0.779000    776.721493
0.780000    776.406284
0.781000    777.684543
0.782000    775.134719
0.783000    776.098100
0.784000    778.002766
0.785000    777.035706
0.786000    777.366651
0.787000    775.766824
0.788000    776.081038
0.789000    774.815501
0.790000    776.727522
0.791000    777.042067
0.792000    777.684211
0.793000    778.324003
0.794000    777.362310
0.795000    778.635202
0.796000    777.366320
0.797000    777.366320
0.798000    777.681196
0.799000    776.722850
0.800000    778.001771
0.801000    777.680865
0.802000    774.814507
0.803000    776.726859
0.804000    776.077028
0.805000    777.041073
0.806000    777.361979
0.807000    777.038390
0.808000    777.352272
0.809000    776.719172
