BioWare Version 5.3.0.7 Export
Device:	4827094 9260AA6	4827095 9260AA6
Samples (#):	4000	4000
Rate (Hz):	1000.000000	1000.000000
Contact period start (sample #):	0	0
Contact period end (sample #):	3999	3999
Contact period start time (s):	0.000000	0.000000
Contact period end time (s):	3.999000	3.999000
First sample time (s):	0.000000	0.000000
Normalized force (N):	0.727714	0.727714
Normalized length (m):	1.000000	1.000000
File Information
Date	Nov 14
Name	
ID	
Classification	
Description	
abs time (s)	Fz	Fz
	N	N
0.000000    945.428116
0.001000    946.391525
0.002000    945.115112
0.003000    945.913193
0.004000    946.545944
0.005000    946.070282
0.006000    947.032669
0.007000    945.912857
0.008000    946.550980
0.009000    947.186905
0.010000    946.388504
0.011000    946.868515
0.012000    945.906845
0.013000    945.755585
0.014000    947.351898
0.015000    945.745697
0.016000    946.869888
0.017000    948.140564
0.018000    947.031174
0.019000    947.188461
0.020000    946.870880
0.021000    947.504654
0.022000    947.821014
0.023000    947.027466
0.024000    945.275726
0.025000    947.823013
0.026000    946.869888
0.027000    946.870041
0.028000    946.552475
0.029000    946.867172
0.030000    946.232574
0.031000    946.542450
0.032000    945.589630
0.033000    946.710953
0.034000    946.710785
0.035000    947.024780
0.036000    946.388504
0.037000    946.554153
0.038000    946.078186
0.039000    945.911026
0.040000    946.712616
0.041000    946.866867
0.042000    946.394547
0.043000    947.027634
0.044000    946.394882
0.045000    944.798569
0.046000    947.032852
0.047000    945.757278
0.048000    947.666626
0.049000    947.667267
0.050000    944.798248
0.051000    946.394409
0.052000    947.347397
0.053000    946.396545
0.054000    945.438156
0.055000    945.115799
0.056000    945.115967
0.057000    945.756607
0.058000    946.233948
0.059000    946.069275
0.060000    947.188110
0.061000    944.638779
0.062000    946.068787
0.063000    946.393372
0.064000    946.392868
0.065000    947.026794
0.066000    947.350235
0.067000    946.706238
0.068000    946.075150
0.069000    946.868698
0.070000    945.919235
0.071000    946.873047
0.072000    947.346725
0.073000    947.669800
0.074000    946.394379
0.075000    947.188934
0.076000    947.674454
0.077000    947.350067
0.078000    947.509018
0.079000    946.710449
0.080000    946.873245
0.081000    947.824890
0.082000    947.350052
0.083000    946.709579
0.084000    947.189789
0.085000    946.393066
0.086000    946.228912
0.087000    947.987671
0.088000    948.619110
0.089000    947.668442
0.090000    947.981461
0.091000    948.146957
0.092000    947.194443
0.093000    947.663406
0.094000    947.824051
0.095000    948.620621
0.096000    946.548798
0.097000    946.710770
0.098000    947.660248
0.099000    947.664627
0.100000    947.504318
0.101000    947.191788
0.102000    947.825562
0.103000    947.345505
0.104000    947.663406
0.105000    946.867020
0.106000    948.937515
0.107000    946.866684
0.108000    946.076828
0.109000    947.024628
0.110000    946.388687
0.111000    946.547440
0.112000    947.345688
0.113000    946.865341
0.114000    946.547302
0.115000    946.229065
0.116000    945.906830
0.117000    946.870712
0.118000    946.861679
0.119000    944.633255
0.120000    946.073624
0.121000    945.593628
0.122000    946.867172
0.123000    945.590622
0.124000    946.224396
0.125000    946.387009
0.126000    946.865005
0.127000    947.816193
0.128000    945.429489
0.129000    944.951294
0.130000    946.539261
0.131000    944.314529
0.132000    945.274216
0.133000    946.068787
0.134000    946.705231
0.135000    945.591949
0.136000    946.228394
0.137000    946.068939
0.138000    945.905136
0.139000    946.389023
0.140000    946.070450
0.141000    946.387009
0.142000    946.544113
0.143000    946.229736
0.144000    945.910019
0.145000    944.787323
0.146000    946.862167
0.147000    946.073792
0.148000    945.427795
0.149000    946.222855
0.150000    946.868866
0.151000    947.341019
0.152000    946.386826
0.153000    946.703400
0.154000    945.427795
0.155000    945.908325
0.156000    945.275894
0.157000    946.229416
0.158000    945.754059
0.159000    946.867172
0.160000    946.546799
0.161000    946.705734
0.162000    944.316208
0.163000    945.596298
0.164000    945.278748
0.165000    946.709564
0.166000    945.270218
0.167000    946.068283
0.168000    945.910995
0.169000    947.340515
0.170000    946.541962
0.171000    945.427628
0.172000    946.547302
0.173000    946.068283
0.174000    946.549957
0.175000    946.233932
0.176000    946.545624
0.177000    946.232407
0.178000    946.390015
0.179000    944.959015
0.180000    946.065460
0.181000    944.001511
0.182000    946.864990
0.183000    946.074677
0.184000    945.907349
0.185000    946.705917
0.186000    946.227219
0.187000    945.114777
0.188000    945.432831
0.189000    945.114273
0.190000    944.954330
0.191000    945.433685
0.192000    945.112610
0.193000    946.071289
0.194000    945.434189
0.195000    945.112610
0.196000    945.907333
0.197000    945.425125
0.198000    944.956863
0.199000    944.794403
0.200000    945.435837
0.201000    946.386337
0.202000    945.271896
0.203000    945.591110
0.204000    945.425797
0.205000    945.279266
0.206000    945.910995
0.207000    944.473129
0.208000    945.109421
0.209000    945.110947
0.210000    944.793228
0.211000    945.432358
0.212000    944.796219
0.213000    945.902802
0.214000    944.314514
0.215000    945.908173
0.216000    944.635437
0.217000    945.431015
0.218000    944.481674
0.219000    945.429504
0.220000    945.904144
0.221000    946.707581
0.222000    945.113800
0.223000    946.068604
0.224000    945.437195
0.225000    944.158279
0.226000    945.748886
0.227000    943.994476
0.228000    945.111435
0.229000    946.066620
0.230000    945.116287
0.231000    945.106079
0.232000    945.591110
0.233000    945.747238
0.234000    945.906677
0.235000    945.745529
0.236000    946.545624
0.237000    945.109253
0.238000    945.594299
0.239000    945.437347
0.240000    946.387344
0.241000    946.545120
0.242000    946.071625
0.243000    945.909348
0.244000    946.227570
0.245000    945.750717
0.246000    945.750397
0.247000    947.347397
0.248000    946.390182
0.249000    946.068115
0.250000    946.547119
0.251000    947.025787
0.252000    946.702560
0.253000    947.347214
0.254000    947.350403
0.255000    945.591797
0.256000    947.185745
0.257000    947.021454
0.258000    945.913513
0.259000    947.509995
0.260000    946.391693
0.261000    946.546799
0.262000    945.909515
0.263000    946.548309
0.264000    946.545975
0.265000    946.068466
0.266000    947.025955
0.267000    945.912994
0.268000    945.594635
0.269000    945.752060
0.270000    945.586411
0.271000    945.751907
0.272000    946.709061
0.273000    945.429504
0.274000    945.590118
0.275000    946.229065
0.276000    947.027283
0.277000    945.909500
0.278000    945.753891
0.279000    946.865021
0.280000    945.909348
0.281000    946.709244
0.282000    944.793243
0.283000    947.184570
0.284000    945.271393
0.285000    945.434021
0.286000    946.866531
0.287000    946.070129
0.288000    946.550308
0.289000    945.749374
0.290000    944.791672
0.291000    947.509674
0.292000    945.907501
0.293000    946.228745
0.294000    945.750229
0.295000    945.911514
0.296000    946.233292
0.297000    946.709076
0.298000    946.549973
0.299000    945.750061
0.300000    945.433838
0.301000    945.910355
0.302000    946.868027
0.303000    946.069641
0.304000    946.393875
0.305000    946.866852
0.306000    946.071289
0.307000    948.305740
0.308000    944.484528
0.309000    946.550140
0.310000    945.590622
0.311000    945.590973
0.312000    945.284607
0.313000    947.348083
0.314000    945.275406
0.315000    945.597168
0.316000    945.756607
0.317000    946.549957
0.318000    945.912201
0.319000    945.433197
0.320000    946.237122
0.321000    946.072647
0.322000    946.389175
0.323000    946.547806
0.324000    946.554672
0.325000    945.912338
0.326000    945.915237
0.327000    945.754730
0.328000    945.756271
0.329000    945.756287
0.330000    946.876068
0.331000    946.551331
0.332000    946.392548
0.333000    946.233124
0.334000    946.071289
0.335000    945.754593
0.336000    944.637451
0.337000    946.394058
0.338000    946.236938
0.339000    947.028351
0.340000    947.351883
0.341000    946.396912
0.342000    945.756607
0.343000    946.712128
0.344000    947.031342
0.345000    946.230087
0.346000    945.438873
0.347000    946.231918
0.348000    946.388016
0.349000    947.029831
0.350000    945.752731
0.351000    946.232422
0.352000    946.236938
0.353000    945.438385
0.354000    946.554840
0.355000    946.236786
0.356000    946.710129
0.357000    946.713959
0.358000    946.712433
0.359000    945.590637
0.360000    947.031998
0.361000    946.076508
0.362000    945.115936
0.363000    945.917221
0.364000    946.713455
0.365000    946.235611
0.366000    946.710632
0.367000    946.392715
0.368000    947.031845
0.369000    947.033859
0.370000    945.915894
0.371000    946.553329
0.372000    946.232071
0.373000    946.871704
0.374000    947.189926
0.375000    946.714447
0.376000    946.713791
0.377000    946.710602
0.378000    946.707245
0.379000    947.504150
0.380000    947.349731
0.381000    945.437363
0.382000    945.117966
0.383000    946.877716
0.384000    947.828735
0.385000    946.874741
0.386000    947.027145
0.387000    946.391190
0.388000    947.190781
0.389000    947.508514
0.390000    946.233124
0.391000    946.555176
0.392000    947.505661
0.393000    946.233109
0.394000    946.082672
0.395000    946.234772
0.396000    947.187943
0.397000    946.713638
0.398000    947.671310
0.399000    947.514008
0.400000    946.556503
0.401000    947.035004
0.402000    946.073151
0.403000    947.192627
0.404000    946.871887
0.405000    946.397064
0.406000    947.194290
0.407000    946.717453
0.408000    946.237289
0.409000    947.350235
0.410000    945.441544
0.411000    944.640778
0.412000    946.870728
0.413000    947.033005
0.414000    946.393875
0.415000    946.394409
0.416000    946.236938
0.417000    946.075180
0.418000    945.438736
0.419000    946.554337
0.420000    946.556335
0.421000    947.511520
0.422000    945.123505
0.423000    946.243454
0.424000    947.038330
0.425000    946.716614
0.426000    946.239609
0.427000    946.880096
0.428000    945.281128
0.429000    946.874252
0.430000    946.870743
0.431000    946.875748
0.432000    946.877060
0.433000    946.400070
0.434000    946.079010
0.435000    945.917374
0.436000    946.395065
0.437000    944.641953
0.438000    945.760788
0.439000    946.077164
0.440000    947.834274
0.441000    945.915375
0.442000    946.714951
0.443000    946.876053
0.444000    946.237762
0.445000    945.285446
0.446000    945.441238
0.447000    945.761108
0.448000    945.282089
0.449000    946.878723
0.450000    946.559692
0.451000    946.242630
0.452000    945.444382
0.453000    947.993393
0.454000    946.075653
0.455000    946.877075
0.456000    946.401413
0.457000    946.872391
0.458000    945.917038
0.459000    946.717957
0.460000    946.870911
0.461000    947.032852
0.462000    945.923065
0.463000    947.359589
0.464000    946.878738
0.465000    946.241608
0.466000    946.077332
0.467000    946.714279
0.468000    946.552689
0.469000    946.716797
0.470000    946.878250
0.471000    946.708755
0.472000    945.918045
0.473000    947.352417
0.474000    946.723343
0.475000    947.196442
0.476000    946.401917
0.477000    946.874252
0.478000    947.191803
0.479000    946.398239
0.480000    946.397064
0.481000    947.828415
0.482000    946.401398
0.483000    947.993713
0.484000    946.399918
0.485000    945.763779
0.486000    946.082016
0.487000    946.876068
0.488000    946.556168
0.489000    946.876724
0.490000    947.200165
0.491000    946.555847
0.492000    946.557831
0.493000    946.241104
0.494000    944.956512
0.495000    946.397064
0.496000    946.872711
0.497000    947.513199
0.498000    946.553009
0.499000    947.038330
0.500000    946.557831
0.501000    946.080841
0.502000    946.719452
0.503000    947.195480
0.504000    946.074509
0.505000    946.715302
0.506000    947.677338
0.507000    947.191803
0.508000    947.831406
0.509000    948.311798
0.510000    946.561020
0.511000    947.513504
0.512000    947.035690
0.513000    946.873566
0.514000    947.352554
0.515000    948.314453
0.516000    947.671814
0.517000    947.673645
0.518000    945.445053
0.519000    946.716797
0.520000    948.314804
0.521000    947.673965
0.522000    946.558670
0.523000    948.308258
0.524000    947.839279
0.525000    947.195145
0.526000    947.516541
0.527000    947.514709
0.528000    946.880615
0.529000    948.631348
0.530000    947.675156
0.531000    947.514709
0.532000    947.832748
0.533000    946.726334
0.534000    947.993225
0.535000    948.150803
0.536000    948.951752
0.537000    948.793289
0.538000    947.991516
0.539000    947.516052
0.540000    946.883591
0.541000    947.837463
0.542000    946.563721
0.543000    948.155014
0.544000    946.565536
0.545000    948.155518
0.546000    947.203171
0.547000    947.043716
0.548000    947.839111
0.549000    948.158356
0.550000    944.968719
0.551000    947.355743
0.552000    947.198151
0.553000    946.245819
0.554000    947.516388
0.555000    947.678833
0.556000    947.519241
0.557000    946.404770
0.558000    947.517899
0.559000    947.041901
0.560000    946.089737
0.561000    947.042374
0.562000    945.612869
0.563000    945.766647
0.564000    947.356934
0.565000    946.887939
0.566000    947.043900
0.567000    945.608902
0.568000    946.247330
0.569000    946.407623
0.570000    945.131027
0.571000    946.246674
0.572000    945.290161
0.573000    945.134369
0.574000    946.086548
0.575000    946.723663
0.576000    945.768646
0.577000    946.087555
0.578000    946.248672
0.579000    945.605515
0.580000    945.769836
0.581000    945.928772
0.582000    944.175339
0.583000    945.769653
0.584000    946.085739
0.585000    945.926941
0.586000    945.772675
0.587000    947.207382
0.588000    946.890640
0.589000    945.299362
0.590000    946.726517
0.591000    946.411987
0.592000    946.091400
0.593000    946.250000
0.594000    945.773010
0.595000    945.774490
0.596000    946.729889
0.597000    945.776367
0.598000    946.091873
0.599000    947.049591
0.600000    946.092728
0.601000    946.407776
0.602000    946.251495
0.603000    945.614059
0.604000    945.456619
0.605000    946.097778
0.606000    947.367996
0.607000    947.210709
0.608000    947.367325
0.609000    947.206345
0.610000    947.209061
0.611000    946.889633
0.612000    945.935303
0.613000    946.094101
0.614000    946.414993
0.615000    945.617081
0.616000    946.894165
0.617000    947.045059
0.618000    947.369659
0.619000    946.412140
0.620000    946.413483
0.621000    946.256546
0.622000    946.092239
0.623000    945.933609
0.624000    947.048416
0.625000    946.569717
0.626000    946.575272
0.627000    945.777878
0.628000    946.568039
0.629000    945.615219
0.630000    945.615707
0.631000    945.294815
0.632000    946.412323
0.633000    945.615891
0.634000    946.256546
0.635000    945.294159
0.636000    945.131866
0.637000    945.135391
0.638000    946.570755
0.639000    946.092545
0.640000    946.245163
0.641000    944.813980
0.642000    946.089203
0.643000    945.453278
0.644000    944.814987
0.645000    944.977600
0.646000    946.251007
0.647000    946.728683
0.648000    944.178207
0.649000    944.020264
0.650000    943.540268
0.651000    944.654877
0.652000    944.655045
0.653000    945.775864
0.654000    944.817001
0.655000    945.767990
0.656000    944.816833
0.657000    943.382813
0.658000    944.338806
0.659000    945.454437
0.660000    944.176529
0.661000    944.338654
0.662000    944.341812
0.663000    944.184387
0.664000    945.451279
0.665000    945.135056
0.666000    944.814987
0.667000    945.455963
0.668000    945.457642
0.669000    944.656036
0.670000    946.577438
0.671000    945.459320
0.672000    943.857834
0.673000    945.457153
0.674000    946.570435
0.675000    944.824692
0.676000    945.614899
0.677000    944.341492
0.678000    945.932617
0.679000    944.658890
0.680000    946.097260
0.681000    945.456284
0.682000    944.021927
0.683000    945.929611
0.684000    945.462158
0.685000    944.343002
0.686000    945.301712
0.687000    945.144592
0.688000    944.502609
0.689000    946.099930
0.690000    944.819168
0.691000    946.096771
0.692000    946.100266
0.693000    946.096924
0.694000    945.939651
0.695000    946.252380
0.696000    945.620102
0.697000    945.457809
0.698000    945.772339
0.699000    946.414139
0.700000    946.252869
0.701000    946.895325
0.702000    945.139587
0.703000    946.417145
0.704000    947.052780
0.705000    947.534149
0.706000    946.572601
0.707000    945.143265
0.708000    947.208542
0.709000    945.937836
0.710000    947.531281
0.711000    946.418320
0.712000    947.689041
0.713000    947.054443
0.714000    947.211212
0.715000    946.889313
0.716000    946.891312
0.717000    945.784225
0.718000    946.735031
0.719000    947.214874
0.720000    947.371155
0.721000    947.847519
0.722000    947.844666
0.723000    947.533432
0.724000    948.328171
0.725000    946.735031
0.726000    947.691879
0.727000    947.211884
0.728000    947.846649
0.729000    948.008606
0.730000    948.167740
0.731000    947.855698
0.732000    947.851501
0.733000    948.487610
0.734000    948.323486
0.735000    948.644562
0.736000    949.763382
0.737000    948.647751
0.738000    946.728989
0.739000    948.326996
0.740000    948.326813
0.741000    949.119064
0.742000    948.325317
0.743000    947.682678
0.744000    948.638550
0.745000    948.007599
0.746000    948.804169
0.747000    948.643570
0.748000    946.887619
0.749000    947.848328
0.750000    948.646393
0.751000    948.328171
0.752000    948.008942
0.753000    948.645035
0.754000    947.368134
0.755000    948.000900
0.756000    948.963440
0.757000    948.163055
0.758000    948.007767
0.759000    947.843155
0.760000    947.848328
0.761000    947.041550
0.762000    948.476395
0.763000    947.848648
0.764000    948.161728
0.765000    948.484436
0.766000    947.047058
0.767000    948.001053
0.768000    947.525940
0.769000    947.211044
0.770000    946.722656
0.771000    947.202499
0.772000    946.884781
0.773000    946.721176
0.774000    947.364792
0.775000    946.725662
0.776000    947.518738
0.777000    947.999725
0.778000    947.043381
0.779000    947.684708
0.780000    946.884933
0.781000    945.927765
0.782000    945.764954
0.783000    946.086212
0.784000    947.199661
0.785000    947.680176
0.786000    945.771820
0.787000    946.089539
0.788000    946.248825
0.789000    945.932266
0.790000    946.407959
0.791000    946.247147
0.792000    945.771820
0.793000    946.729004
0.794000    945.933792
0.795000    944.814819
0.796000    946.883270
0.797000    946.410614
0.798000    945.613724
0.799000    945.771652
0.800000    945.447235
0.801000    945.132385
0.802000    945.612701
0.803000    946.411987
0.804000    946.728668
0.805000    946.727829
0.806000    945.933929
0.807000    945.295990
0.808000    945.933609
0.809000    946.886444
0.810000    945.774673
