BioWare Version 5.3.0.7 Export
Device:	4827094 9260AA6	4827095 9260AA6
Samples (#):	4000	4000
Rate (Hz):	1000.000000	1000.000000
Contact period start (sample #):	0	0
Contact period end (sample #):	3999	3999
Contact period start time (s):	0.000000	0.000000
Contact period end time (s):	3.999000	3.999000
First sample time (s):	0.000000	0.000000
Normalized force (N):	0.727714	0.727714
Normalized length (m):	1.000000	1.000000
File Information
Date	Nov 14
Name	
ID	
Classification	
Description	
abs time (s)	Fz	Fz
	N	N
0.000000    725.085564
0.001000    724.770645
0.002000    723.656700
0.003000    724.609718
0.004000    724.134674
0.005000    724.292984
0.006000    724.135201
0.007000    724.930916
0.008000    724.769478
0.009000    723.974274
0.010000    723.815300
0.011000    726.201485
0.012000    725.407234
0.013000    723.975899
0.014000    725.089676
0.015000    723.817642
0.016000    724.450439
0.017000    725.090340
0.018000    722.862968
0.019000    723.339294
0.020000    723.022896
0.021000    723.818306
0.022000    723.181511
0.023000    724.136665
0.024000    723.497749
0.025000    723.340958
0.026000    723.180527
0.027000    724.134697
0.028000    723.340134
0.029000    724.136337
0.030000    722.705025
0.031000    722.864632
0.032000    722.705498
0.033000    723.497902
0.034000    722.385941
0.035000    722.068077
0.036000    722.228516
0.037000    722.226341
0.038000    723.023399
0.039000    722.547203
0.040000    721.272842
0.041000    722.387260
0.042000    721.591072
0.043000    722.068893
0.044000    721.750824
0.045000    722.068733
0.046000    721.272682
0.047000    720.637863
0.048000    722.068405
0.049000    721.751816
0.050000    722.386955
0.051000    721.590225
0.052000    722.069893
0.053000    723.183662
0.054000    721.432281
0.055000    722.863968
0.056000    721.116203
0.057000    722.547546
0.058000    722.069229
0.059000    721.431114
0.060000    722.226860
0.061000    721.432121
0.062000    723.023903
0.063000    721.908943
0.064000    722.546074
0.065000    721.590233
0.066000    722.544907
0.067000    722.544899
0.068000    721.908958
0.069000    721.432274
0.070000    723.023048
0.071000    722.227669
0.072000    722.863289
0.073000    722.702522
0.074000    721.750488
0.075000    723.339149
0.076000    723.337654
0.077000    723.341133
0.078000    722.385124
0.079000    724.293472
0.080000    724.135857
0.081000    723.021721
0.082000    723.340141
0.083000    723.498428
0.084000    724.293472
0.085000    723.656708
0.086000    723.340469
0.087000    726.361084
0.088000    724.768814
0.089000    725.247147
0.090000    724.927429
0.091000    726.200813
0.092000    726.676842
0.093000    725.087364
0.094000    726.358788
0.095000    726.836098
0.096000    727.629700
0.097000    727.471893
0.098000    727.472069
0.099000    726.677322
0.100000    727.470909
0.101000    726.996696
0.102000    727.789108
0.103000    727.950218
0.104000    727.470230
0.105000    728.108177
0.106000    727.948067
0.107000    728.743782
0.108000    728.584694
0.109000    728.743629
0.110000    728.108192
0.111000    727.787971
0.112000    727.948242
0.113000    728.903091
0.114000    728.107338
0.115000    729.697296
0.116000    728.903419
0.117000    727.947731
0.118000    728.427208
0.119000    726.993233
0.120000    728.584023
0.121000    728.745453
0.122000    728.742134
0.123000    728.427071
0.124000    728.585686
0.125000    728.109184
0.126000    727.632668
0.127000    729.222298
0.128000    728.585167
0.129000    727.631180
0.130000    727.632835
0.131000    728.267784
0.132000    728.904579
0.133000    728.110641
0.134000    728.428886
0.135000    729.062836
0.136000    728.428879
0.137000    728.428230
0.138000    727.474045
0.139000    728.747093
0.140000    727.314445
0.141000    726.676003
0.142000    727.157166
0.143000    727.315582
0.144000    727.315582
0.145000    726.838081
0.146000    726.521027
0.147000    726.519859
0.148000    726.360435
0.149000    726.520699
0.150000    726.521027
0.151000    725.724800
0.152000    726.520058
0.153000    726.361427
0.154000    725.884262
0.155000    725.567352
0.156000    726.521034
0.157000    726.362236
0.158000    724.929932
0.159000    725.090027
0.160000    724.294487
0.161000    725.090195
0.162000    725.406929
0.163000    724.931084
0.164000    725.725792
0.165000    725.407097
0.166000    724.931587
0.167000    723.341286
0.168000    725.885071
0.169000    725.249130
0.170000    725.089012
0.171000    724.296440
0.172000    724.614830
0.173000    723.977051
0.174000    724.295448
0.175000    725.089531
0.176000    725.090858
0.177000    723.657181
0.178000    723.978569
0.179000    724.615013
0.180000    724.770966
0.181000    723.818787
0.182000    724.296616
0.183000    724.136848
0.184000    724.137344
0.185000    725.568680
0.186000    724.771790
0.187000    723.658165
0.188000    723.817619
0.189000    723.659172
0.190000    724.613838
0.191000    724.613518
0.192000    723.976921
0.193000    725.407738
0.194000    723.819450
0.195000    724.771957
0.196000    724.456535
0.197000    723.977722
0.198000    724.294624
0.199000    725.409233
0.200000    725.886253
0.201000    724.137337
0.202000    724.294807
0.203000    723.819954
0.204000    725.250450
0.205000    723.819435
0.206000    725.252129
0.207000    723.184502
0.208000    724.296112
0.209000    725.250130
0.210000    723.817139
0.211000    724.295799
0.212000    724.932236
0.213000    724.295624
0.214000    723.658501
0.215000    723.819122
0.216000    723.500389
0.217000    723.501228
0.218000    723.660355
0.219000    724.615822
0.220000    724.138985
0.221000    724.137848
0.222000    723.342262
0.223000    723.819275
0.224000    723.820770
0.225000    723.980034
0.226000    723.978233
0.227000    723.501884
0.228000    723.502716
0.229000    722.865929
0.230000    723.659836
0.231000    722.548195
0.232000    723.343117
0.233000    723.025703
0.234000    723.026695
0.235000    722.706169
0.236000    721.911919
0.237000    723.979568
0.238000    723.024048
0.239000    722.707314
0.240000    721.595695
0.241000    723.343269
0.242000    723.341621
0.243000    722.072372
0.244000    722.707657
0.245000    722.388931
0.246000    721.752632
0.247000    722.389595
0.248000    721.593864
0.249000    722.389267
0.250000    722.705818
0.251000    723.499718
0.252000    722.706154
0.253000    723.026039
0.254000    722.866096
0.255000    722.548531
0.256000    722.072533
0.257000    723.023056
0.258000    723.024208
0.259000    722.229317
0.260000    723.183479
0.261000    723.343452
0.262000    722.705666
0.263000    723.819946
0.264000    723.977905
0.265000    723.183655
0.266000    723.819427
0.267000    724.137840
0.268000    723.820435
0.269000    722.707314
0.270000    723.342285
0.271000    723.182999
0.272000    723.501717
0.273000    724.297935
0.274000    724.931915
0.275000    724.613029
0.276000    725.727959
0.277000    727.158287
0.278000    724.296440
0.279000    724.614510
0.280000    727.158806
0.281000    726.206261
0.282000    724.773277
0.283000    726.680984
0.284000    726.046516
0.285000    726.523827
0.286000    727.476852
0.287000    724.933571
0.288000    726.840240
0.289000    726.681145
0.290000    726.840263
0.291000    725.888222
0.292000    726.840569
0.293000    728.113312
0.294000    727.475700
0.295000    726.682129
0.296000    726.683281
0.297000    727.636459
0.298000    728.110970
0.299000    727.318756
0.300000    727.477364
0.301000    727.000999
0.302000    728.272903
0.303000    726.682289
0.304000    727.795570
0.305000    727.479668
0.306000    728.748589
0.307000    726.842560
0.308000    726.524361
0.309000    727.794754
0.310000    727.635330
0.311000    727.001846
0.312000    726.843719
0.313000    727.956528
0.314000    727.638298
0.315000    727.001686
0.316000    727.001686
0.317000    726.842056
0.318000    727.002014
0.319000    726.523193
0.320000    727.479340
0.321000    726.206787
0.322000    726.364243
0.323000    728.273422
0.324000    726.047005
0.325000    726.365074
0.326000    726.207108
0.327000    726.525177
0.328000    725.412888
0.329000    726.526337
0.330000    724.775124
0.331000    726.048141
0.332000    725.891541
0.333000    724.936195
0.334000    725.252777
0.335000    725.413223
0.336000    725.095490
0.337000    724.776604
0.338000    723.825073
0.339000    724.617828
0.340000    725.414368
0.341000    723.187141
0.342000    723.664948
0.343000    723.505859
0.344000    724.777420
0.345000    722.074348
0.346000    724.142784
0.347000    723.505676
0.348000    723.348373
0.349000    724.140663
0.350000    724.298752
0.351000    723.980850
0.352000    724.620117
0.353000    724.618301
0.354000    724.460205
0.355000    723.029182
0.356000    722.869247
0.357000    722.871048
0.358000    723.187286
0.359000    722.392906
0.360000    722.870552
0.361000    723.346756
0.362000    722.235275
0.363000    721.759422
0.364000    722.395554
0.365000    721.439240
0.366000    722.234772
0.367000    722.868568
0.368000    722.868744
0.369000    721.915565
0.370000    721.918373
0.371000    722.075356
0.372000    723.506989
0.373000    723.505539
0.374000    721.757271
0.375000    723.984856
0.376000    722.392723
0.377000    722.551346
0.378000    722.234947
0.379000    723.506836
0.380000    723.029167
0.381000    722.711617
0.382000    723.029350
0.383000    723.982864
0.384000    723.983498
0.385000    722.870399
0.386000    723.663811
0.387000    723.347404
0.388000    723.346581
0.389000    722.713593
0.390000    723.506508
0.391000    722.550690
0.392000    722.870392
0.393000    723.665634
0.394000    723.665642
0.395000    724.142128
0.396000    723.028015
0.397000    723.504539
0.398000    723.029678
0.399000    723.186966
0.400000    724.142319
0.401000    723.982208
0.402000    723.027847
0.403000    724.140976
0.404000    722.550697
0.405000    722.870247
0.406000    723.982697
0.407000    724.300751
0.408000    723.507851
0.409000    723.666298
0.410000    723.825089
0.411000    723.188141
0.412000    724.461029
0.413000    723.981537
0.414000    724.620300
0.415000    724.618958
0.416000    724.618973
0.417000    722.870560
0.418000    723.982376
0.419000    723.507683
0.420000    722.712135
0.421000    723.984024
0.422000    723.346558
0.423000    722.870087
0.424000    723.983856
0.425000    724.301910
0.426000    722.870911
0.427000    723.822601
0.428000    722.869583
0.429000    723.506851
0.430000    723.664474
0.431000    724.300766
0.432000    724.619141
0.433000    722.550522
0.434000    722.869415
0.435000    722.711807
0.436000    723.347412
0.437000    723.346573
0.438000    724.460693
0.439000    723.981689
0.440000    723.187637
0.441000    722.235123
0.442000    724.299927
0.443000    723.822754
0.444000    723.823914
0.445000    723.826920
0.446000    724.301407
0.447000    724.141800
0.448000    722.552185
0.449000    723.507187
0.450000    723.504364
0.451000    724.620300
0.452000    723.505188
0.453000    723.981216
0.454000    724.301590
0.455000    724.777420
0.456000    723.982193
0.457000    724.143616
0.458000    723.980698
0.459000    723.984344
0.460000    725.096146
0.461000    724.938690
0.462000    725.572479
0.463000    724.140152
0.464000    723.982697
0.465000    724.935364
0.466000    724.618332
0.467000    724.458878
0.468000    724.936203
0.469000    723.664307
0.470000    723.505539
0.471000    725.253937
0.472000    724.458221
0.473000    723.983215
0.474000    724.617981
0.475000    724.777100
0.476000    725.412552
0.477000    724.776093
0.478000    724.934235
0.479000    724.936203
0.480000    726.207260
0.481000    723.983353
0.482000    725.253250
0.483000    726.208939
0.484000    725.571991
0.485000    726.207108
0.486000    724.459045
0.487000    725.093826
0.488000    725.413727
0.489000    726.525681
0.490000    726.368546
0.491000    726.046997
0.492000    725.889038
0.493000    726.207794
0.494000    727.161453
0.495000    726.364563
0.496000    726.525009
0.497000    727.161148
0.498000    726.843048
0.499000    726.524841
0.500000    726.683960
0.501000    726.684448
0.502000    727.797577
0.503000    726.843567
0.504000    725.889221
0.505000    727.957504
0.506000    727.956696
0.507000    727.001526
0.508000    727.798233
0.509000    726.525330
0.510000    727.638138
0.511000    727.479675
0.512000    728.116791
0.513000    726.526810
0.514000    726.684799
0.515000    727.480347
0.516000    726.366226
0.517000    726.526184
0.518000    726.844391
0.519000    726.526169
0.520000    725.255264
0.521000    726.686279
0.522000    727.004013
0.523000    726.050659
0.524000    726.527496
0.525000    725.095001
0.526000    726.049164
0.527000    724.778763
0.528000    725.414383
0.529000    725.414032
0.530000    724.936707
0.531000    725.573807
0.532000    724.939011
0.533000    724.300079
0.534000    723.826080
0.535000    725.414047
0.536000    724.460861
0.537000    724.302246
0.538000    723.506691
0.539000    723.825241
0.540000    724.618820
0.541000    723.983688
0.542000    723.984207
0.543000    723.346092
0.544000    725.096634
0.545000    724.142624
0.546000    723.665138
0.547000    723.347565
0.548000    722.711624
0.549000    723.506371
0.550000    722.392563
0.551000    721.756966
0.552000    723.189964
0.553000    722.551025
0.554000    723.029854
0.555000    723.824265
0.556000    723.665985
0.557000    723.505699
0.558000    722.393074
0.559000    723.824074
0.560000    723.346092
0.561000    724.460037
0.562000    724.616829
0.563000    722.869072
0.564000    724.301750
0.565000    723.665634
0.566000    723.984016
0.567000    724.777267
0.568000    724.778595
0.569000    724.618645
0.570000    724.776283
0.571000    725.256264
0.572000    726.210434
0.573000    725.253281
0.574000    725.254440
0.575000    725.571831
0.576000    725.414375
0.577000    725.731773
0.578000    726.049820
0.579000    726.049156
0.580000    726.367378
0.581000    725.889885
0.582000    727.163445
0.583000    726.684937
0.584000    726.367233
0.585000    725.096138
0.586000    727.638626
0.587000    725.733261
0.588000    726.526352
0.589000    727.004021
0.590000    726.526337
0.591000    725.891373
0.592000    726.684952
0.593000    726.210617
0.594000    727.799210
0.595000    727.164276
0.596000    725.892380
0.597000    726.687439
0.598000    725.571487
0.599000    726.209763
0.600000    725.890884
0.601000    726.527664
0.602000    724.938377
0.603000    725.256416
0.604000    726.367218
0.605000    725.415039
0.606000    724.938370
0.607000    725.415024
0.608000    725.573830
0.609000    725.415863
0.610000    725.255096
0.611000    725.415192
0.612000    723.825233
0.613000    724.141464
0.614000    723.666794
0.615000    724.779587
0.616000    724.300751
0.617000    723.824905
0.618000    723.666306
0.619000    724.461365
0.620000    723.348579
0.621000    722.235603
0.622000    724.302078
0.623000    724.142944
0.624000    723.350891
0.625000    724.143967
0.626000    722.554810
0.627000    723.826233
0.628000    722.713608
0.629000    722.714279
0.630000    723.668106
0.631000    723.032173
0.632000    723.985672
0.633000    723.985352
0.634000    724.143799
0.635000    722.872375
0.636000    723.032005
0.637000    723.510178
0.638000    723.508194
0.639000    722.713615
0.640000    723.987183
0.641000    724.621124
0.642000    723.825737
0.643000    723.509171
0.644000    722.236786
0.645000    725.255096
0.646000    723.189796
0.647000    724.302429
0.648000    723.985527
0.649000    724.144958
0.650000    724.459869
0.651000    724.303574
0.652000    724.302734
0.653000    724.781403
0.654000    725.417038
0.655000    725.256424
0.656000    723.987656
0.657000    725.575974
0.658000    725.892197
0.659000    725.256760
0.660000    726.528152
0.661000    725.893860
0.662000    727.325195
0.663000    725.418350
0.664000    726.052460
0.665000    726.370529
0.666000    726.210922
0.667000    727.641281
0.668000    727.007477
0.669000    724.938354
0.670000    726.053619
0.671000    726.209274
0.672000    726.688919
0.673000    727.004501
0.674000    727.004501
0.675000    726.369370
0.676000    727.801224
0.677000    726.848206
0.678000    726.369858
0.679000    727.165268
0.680000    726.846039
0.681000    726.689255
0.682000    726.528137
0.683000    725.575302
0.684000    726.210587
0.685000    727.803848
0.686000    726.847198
0.687000    727.642273
0.688000    727.482666
0.689000    727.166260
0.690000    726.688095
0.691000    726.371033
0.692000    726.052307
0.693000    727.166077
0.694000    726.688080
0.695000    726.530304
0.696000    726.528320
0.697000    725.735260
0.698000    726.209259
0.699000    725.732422
0.700000    724.621140
0.701000    726.368378
0.702000    725.259415
0.703000    724.940338
0.704000    725.417679
0.705000    725.257751
0.706000    725.736252
0.707000    725.736725
0.708000    726.053467
0.709000    725.419022
0.710000    725.259064
0.711000    724.622772
0.712000    724.782578
0.713000    724.939026
0.714000    724.940338
0.715000    724.304413
0.716000    725.257416
0.717000    724.782394
0.718000    725.893860
0.719000    724.304092
0.720000    724.302429
0.721000    725.894516
0.722000    724.144791
0.723000    724.784378
0.724000    724.941666
0.725000    724.463669
0.726000    724.621780
0.727000    724.304398
0.728000    724.303574
0.729000    725.577454
0.730000    725.260895
0.731000    724.463821
0.732000    725.257584
0.733000    724.463028
0.734000    726.052963
0.735000    726.373016
0.736000    725.735580
0.737000    726.528976
0.738000    726.529465
0.739000    726.690399
0.740000    727.166428
0.741000    727.004990
0.742000    728.117264
0.743000    727.005478
0.744000    728.596939
0.745000    729.231735
0.746000    728.597595
0.747000    728.596771
0.748000    729.866989
0.749000    728.756866
0.750000    728.598251
0.751000    729.551743
0.752000    729.708893
0.753000    728.913651
0.754000    730.344177
0.755000    729.868164
0.756000    729.710861
0.757000    730.185730
0.758000    730.503952
0.759000    731.298691
0.760000    731.140228
0.761000    731.777344
0.762000    731.300674
0.763000    731.458298
0.764000    730.821701
0.765000    731.458130
0.766000    731.457962
0.767000    730.981628
0.768000    730.345337
0.769000    730.663742
0.770000    729.867981
0.771000    730.662231
0.772000    730.823318
0.773000    731.457809
0.774000    729.234360
0.775000    729.710037
0.776000    728.915329
0.777000    728.597427
0.778000    728.596756
0.779000    728.598267
0.780000    727.803192
0.781000    727.803024
0.782000    727.486618
0.783000    726.689255
0.784000    727.007950
0.785000    726.849350
0.786000    726.372833
0.787000    726.530624
0.788000    725.577957
0.789000    725.579300
0.790000    726.215073
0.791000    725.101944
0.792000    724.624435
0.793000    724.624619
0.794000    724.148102
0.795000    724.307037
0.796000    723.192932
0.797000    724.465988
0.798000    724.307526
0.799000    723.512650
0.800000    723.195084
0.801000    723.829224
0.802000    724.465988
0.803000    723.351883
0.804000    722.876373
0.805000    723.034485
0.806000    723.990295
0.807000    723.194412
0.808000    721.763062
0.809000    724.147934
0.810000    721.604950
