BioWare Version 5.3.0.7 Export
Device:	4827094 9260AA6	4827095 9260AA6
Samples (#):	4000	4000
Rate (Hz):	1000.000000	1000.000000
Contact period start (sample #):	0	0
Contact period end (sample #):	3999	3999
Contact period start time (s):	0.000000	0.000000
Contact period end time (s):	3.999000	3.999000
First sample time (s):	0.000000	0.000000
Normalized force (N):	0.727714	0.727714
Normalized length (m):	1.000000	1.000000
File Information
Date	Nov 14, 2016  07:17:13
Name	
ID	
Classification	
Description	
abs time (s)	Fz	Fz
	N	N
0.000000	725.085564	945.428116
0.001000	724.770645	946.391525
0.002000	723.656700	945.115112
0.003000	724.609718	945.913193
0.004000	724.134674	946.545944
0.005000	724.292984	946.070282
0.006000	724.135201	947.032669
0.007000	724.930916	945.912857
0.008000	724.769478	946.550980
0.009000	723.974274	947.186905
0.010000	723.815300	946.388504
0.011000	726.201485	946.868515
0.012000	725.407234	945.906845
0.013000	723.975899	945.755585
0.014000	725.089676	947.351898
0.015000	723.817642	945.745697
0.016000	724.450439	946.869888
0.017000	725.090340	948.140564
0.018000	722.862968	947.031174
0.019000	723.339294	947.188461
0.020000	723.022896	946.870880
0.021000	723.818306	947.504654
0.022000	723.181511	947.821014
0.023000	724.136665	947.027466
0.024000	723.497749	945.275726
0.025000	723.340958	947.823013
0.026000	723.180527	946.869888
0.027000	724.134697	946.870041
0.028000	723.340134	946.552475
0.029000	724.136337	946.867172
0.030000	722.705025	946.232574
0.031000	722.864632	946.542450
0.032000	722.705498	945.589630
0.033000	723.497902	946.710953
0.034000	722.385941	946.710785
0.035000	722.068077	947.024780
0.036000	722.228516	946.388504
0.037000	722.226341	946.554153
0.038000	723.023399	946.078186
0.039000	722.547203	945.911026
0.040000	721.272842	946.712616
0.041000	722.387260	946.866867
0.042000	721.591072	946.394547
0.043000	722.068893	947.027634
0.044000	721.750824	946.394882
0.045000	722.068733	944.798569
0.046000	721.272682	947.032852
0.047000	720.637863	945.757278
0.048000	722.068405	947.666626
0.049000	721.751816	947.667267
0.050000	722.386955	944.798248
0.051000	721.590225	946.394409
0.052000	722.069893	947.347397
0.053000	723.183662	946.396545
0.054000	721.432281	945.438156
0.055000	722.863968	945.115799
0.056000	721.116203	945.115967
0.057000	722.547546	945.756607
0.058000	722.069229	946.233948
0.059000	721.431114	946.069275
0.060000	722.226860	947.188110
0.061000	721.432121	944.638779
0.062000	723.023903	946.068787
0.063000	721.908943	946.393372
0.064000	722.546074	946.392868
0.065000	721.590233	947.026794
0.066000	722.544907	947.350235
0.067000	722.544899	946.706238
0.068000	721.908958	946.075150
0.069000	721.432274	946.868698
0.070000	723.023048	945.919235
0.071000	722.227669	946.873047
0.072000	722.863289	947.346725
0.073000	722.702522	947.669800
0.074000	721.750488	946.394379
0.075000	723.339149	947.188934
0.076000	723.337654	947.674454
0.077000	723.341133	947.350067
0.078000	722.385124	947.509018
0.079000	724.293472	946.710449
0.080000	724.135857	946.873245
0.081000	723.021721	947.824890
0.082000	723.340141	947.350052
0.083000	723.498428	946.709579
0.084000	724.293472	947.189789
0.085000	723.656708	946.393066
0.086000	723.340469	946.228912
0.087000	726.361084	947.987671
0.088000	724.768814	948.619110
0.089000	725.247147	947.668442
0.090000	724.927429	947.981461
0.091000	726.200813	948.146957
0.092000	726.676842	947.194443
0.093000	725.087364	947.663406
0.094000	726.358788	947.824051
0.095000	726.836098	948.620621
0.096000	727.629700	946.548798
0.097000	727.471893	946.710770
0.098000	727.472069	947.660248
0.099000	726.677322	947.664627
0.100000	727.470909	947.504318
0.101000	726.996696	947.191788
0.102000	727.789108	947.825562
0.103000	727.950218	947.345505
0.104000	727.470230	947.663406
0.105000	728.108177	946.867020
0.106000	727.948067	948.937515
0.107000	728.743782	946.866684
0.108000	728.584694	946.076828
0.109000	728.743629	947.024628
0.110000	728.108192	946.388687
0.111000	727.787971	946.547440
0.112000	727.948242	947.345688
0.113000	728.903091	946.865341
0.114000	728.107338	946.547302
0.115000	729.697296	946.229065
0.116000	728.903419	945.906830
0.117000	727.947731	946.870712
0.118000	728.427208	946.861679
0.119000	726.993233	944.633255
0.120000	728.584023	946.073624
0.121000	728.745453	945.593628
0.122000	728.742134	946.867172
0.123000	728.427071	945.590622
0.124000	728.585686	946.224396
0.125000	728.109184	946.387009
0.126000	727.632668	946.865005
0.127000	729.222298	947.816193
0.128000	728.585167	945.429489
0.129000	727.631180	944.951294
0.130000	727.632835	946.539261
0.131000	728.267784	944.314529
0.132000	728.904579	945.274216
0.133000	728.110641	946.068787
0.134000	728.428886	946.705231
0.135000	729.062836	945.591949
0.136000	728.428879	946.228394
0.137000	728.428230	946.068939
0.138000	727.474045	945.905136
0.139000	728.747093	946.389023
0.140000	727.314445	946.070450
0.141000	726.676003	946.387009
0.142000	727.157166	946.544113
0.143000	727.315582	946.229736
0.144000	727.315582	945.910019
0.145000	726.838081	944.787323
0.146000	726.521027	946.862167
0.147000	726.519859	946.073792
0.148000	726.360435	945.427795
0.149000	726.520699	946.222855
0.150000	726.521027	946.868866
0.151000	725.724800	947.341019
0.152000	726.520058	946.386826
0.153000	726.361427	946.703400
0.154000	725.884262	945.427795
0.155000	725.567352	945.908325
0.156000	726.521034	945.275894
0.157000	726.362236	946.229416
0.158000	724.929932	945.754059
0.159000	725.090027	946.867172
0.160000	724.294487	946.546799
0.161000	725.090195	946.705734
0.162000	725.406929	944.316208
0.163000	724.931084	945.596298
0.164000	725.725792	945.278748
0.165000	725.407097	946.709564
0.166000	724.931587	945.270218
0.167000	723.341286	946.068283
0.168000	725.885071	945.910995
0.169000	725.249130	947.340515
0.170000	725.089012	946.541962
0.171000	724.296440	945.427628
0.172000	724.614830	946.547302
0.173000	723.977051	946.068283
0.174000	724.295448	946.549957
0.175000	725.089531	946.233932
0.176000	725.090858	946.545624
0.177000	723.657181	946.232407
0.178000	723.978569	946.390015
0.179000	724.615013	944.959015
0.180000	724.770966	946.065460
0.181000	723.818787	944.001511
0.182000	724.296616	946.864990
0.183000	724.136848	946.074677
0.184000	724.137344	945.907349
0.185000	725.568680	946.705917
0.186000	724.771790	946.227219
0.187000	723.658165	945.114777
0.188000	723.817619	945.432831
0.189000	723.659172	945.114273
0.190000	724.613838	944.954330
0.191000	724.613518	945.433685
0.192000	723.976921	945.112610
0.193000	725.407738	946.071289
0.194000	723.819450	945.434189
0.195000	724.771957	945.112610
0.196000	724.456535	945.907333
0.197000	723.977722	945.425125
0.198000	724.294624	944.956863
0.199000	725.409233	944.794403
0.200000	725.886253	945.435837
0.201000	724.137337	946.386337
0.202000	724.294807	945.271896
0.203000	723.819954	945.591110
0.204000	725.250450	945.425797
0.205000	723.819435	945.279266
0.206000	725.252129	945.910995
0.207000	723.184502	944.473129
0.208000	724.296112	945.109421
0.209000	725.250130	945.110947
0.210000	723.817139	944.793228
0.211000	724.295799	945.432358
0.212000	724.932236	944.796219
0.213000	724.295624	945.902802
0.214000	723.658501	944.314514
0.215000	723.819122	945.908173
0.216000	723.500389	944.635437
0.217000	723.501228	945.431015
0.218000	723.660355	944.481674
0.219000	724.615822	945.429504
0.220000	724.138985	945.904144
0.221000	724.137848	946.707581
0.222000	723.342262	945.113800
0.223000	723.819275	946.068604
0.224000	723.820770	945.437195
0.225000	723.980034	944.158279
0.226000	723.978233	945.748886
0.227000	723.501884	943.994476
0.228000	723.502716	945.111435
0.229000	722.865929	946.066620
0.230000	723.659836	945.116287
0.231000	722.548195	945.106079
0.232000	723.343117	945.591110
0.233000	723.025703	945.747238
0.234000	723.026695	945.906677
0.235000	722.706169	945.745529
0.236000	721.911919	946.545624
0.237000	723.979568	945.109253
0.238000	723.024048	945.594299
0.239000	722.707314	945.437347
0.240000	721.595695	946.387344
0.241000	723.343269	946.545120
0.242000	723.341621	946.071625
0.243000	722.072372	945.909348
0.244000	722.707657	946.227570
0.245000	722.388931	945.750717
0.246000	721.752632	945.750397
0.247000	722.389595	947.347397
0.248000	721.593864	946.390182
0.249000	722.389267	946.068115
0.250000	722.705818	946.547119
0.251000	723.499718	947.025787
0.252000	722.706154	946.702560
0.253000	723.026039	947.347214
0.254000	722.866096	947.350403
0.255000	722.548531	945.591797
0.256000	722.072533	947.185745
0.257000	723.023056	947.021454
0.258000	723.024208	945.913513
0.259000	722.229317	947.509995
0.260000	723.183479	946.391693
0.261000	723.343452	946.546799
0.262000	722.705666	945.909515
0.263000	723.819946	946.548309
0.264000	723.977905	946.545975
0.265000	723.183655	946.068466
0.266000	723.819427	947.025955
0.267000	724.137840	945.912994
0.268000	723.820435	945.594635
0.269000	722.707314	945.752060
0.270000	723.342285	945.586411
0.271000	723.182999	945.751907
0.272000	723.501717	946.709061
0.273000	724.297935	945.429504
0.274000	724.931915	945.590118
0.275000	724.613029	946.229065
0.276000	725.727959	947.027283
0.277000	727.158287	945.909500
0.278000	724.296440	945.753891
0.279000	724.614510	946.865021
0.280000	727.158806	945.909348
0.281000	726.206261	946.709244
0.282000	724.773277	944.793243
0.283000	726.680984	947.184570
0.284000	726.046516	945.271393
0.285000	726.523827	945.434021
0.286000	727.476852	946.866531
0.287000	724.933571	946.070129
0.288000	726.840240	946.550308
0.289000	726.681145	945.749374
0.290000	726.840263	944.791672
0.291000	725.888222	947.509674
0.292000	726.840569	945.907501
0.293000	728.113312	946.228745
0.294000	727.475700	945.750229
0.295000	726.682129	945.911514
0.296000	726.683281	946.233292
0.297000	727.636459	946.709076
0.298000	728.110970	946.549973
0.299000	727.318756	945.750061
0.300000	727.477364	945.433838
0.301000	727.000999	945.910355
0.302000	728.272903	946.868027
0.303000	726.682289	946.069641
0.304000	727.795570	946.393875
0.305000	727.479668	946.866852
0.306000	728.748589	946.071289
0.307000	726.842560	948.305740
0.308000	726.524361	944.484528
0.309000	727.794754	946.550140
0.310000	727.635330	945.590622
0.311000	727.001846	945.590973
0.312000	726.843719	945.284607
0.313000	727.956528	947.348083
0.314000	727.638298	945.275406
0.315000	727.001686	945.597168
0.316000	727.001686	945.756607
0.317000	726.842056	946.549957
0.318000	727.002014	945.912201
0.319000	726.523193	945.433197
0.320000	727.479340	946.237122
0.321000	726.206787	946.072647
0.322000	726.364243	946.389175
0.323000	728.273422	946.547806
0.324000	726.047005	946.554672
0.325000	726.365074	945.912338
0.326000	726.207108	945.915237
0.327000	726.525177	945.754730
0.328000	725.412888	945.756271
0.329000	726.526337	945.756287
0.330000	724.775124	946.876068
0.331000	726.048141	946.551331
0.332000	725.891541	946.392548
0.333000	724.936195	946.233124
0.334000	725.252777	946.071289
0.335000	725.413223	945.754593
0.336000	725.095490	944.637451
0.337000	724.776604	946.394058
0.338000	723.825073	946.236938
0.339000	724.617828	947.028351
0.340000	725.414368	947.351883
0.341000	723.187141	946.396912
0.342000	723.664948	945.756607
0.343000	723.505859	946.712128
0.344000	724.777420	947.031342
0.345000	722.074348	946.230087
0.346000	724.142784	945.438873
0.347000	723.505676	946.231918
0.348000	723.348373	946.388016
0.349000	724.140663	947.029831
0.350000	724.298752	945.752731
0.351000	723.980850	946.232422
0.352000	724.620117	946.236938
0.353000	724.618301	945.438385
0.354000	724.460205	946.554840
0.355000	723.029182	946.236786
0.356000	722.869247	946.710129
0.357000	722.871048	946.713959
0.358000	723.187286	946.712433
0.359000	722.392906	945.590637
0.360000	722.870552	947.031998
0.361000	723.346756	946.076508
0.362000	722.235275	945.115936
0.363000	721.759422	945.917221
0.364000	722.395554	946.713455
0.365000	721.439240	946.235611
0.366000	722.234772	946.710632
0.367000	722.868568	946.392715
0.368000	722.868744	947.031845
0.369000	721.915565	947.033859
0.370000	721.918373	945.915894
0.371000	722.075356	946.553329
0.372000	723.506989	946.232071
0.373000	723.505539	946.871704
0.374000	721.757271	947.189926
0.375000	723.984856	946.714447
0.376000	722.392723	946.713791
0.377000	722.551346	946.710602
0.378000	722.234947	946.707245
0.379000	723.506836	947.504150
0.380000	723.029167	947.349731
0.381000	722.711617	945.437363
0.382000	723.029350	945.117966
0.383000	723.982864	946.877716
0.384000	723.983498	947.828735
0.385000	722.870399	946.874741
0.386000	723.663811	947.027145
0.387000	723.347404	946.391190
0.388000	723.346581	947.190781
0.389000	722.713593	947.508514
0.390000	723.506508	946.233124
0.391000	722.550690	946.555176
0.392000	722.870392	947.505661
0.393000	723.665634	946.233109
0.394000	723.665642	946.082672
0.395000	724.142128	946.234772
0.396000	723.028015	947.187943
0.397000	723.504539	946.713638
0.398000	723.029678	947.671310
0.399000	723.186966	947.514008
0.400000	724.142319	946.556503
0.401000	723.982208	947.035004
0.402000	723.027847	946.073151
0.403000	724.140976	947.192627
0.404000	722.550697	946.871887
0.405000	722.870247	946.397064
0.406000	723.982697	947.194290
0.407000	724.300751	946.717453
0.408000	723.507851	946.237289
0.409000	723.666298	947.350235
0.410000	723.825089	945.441544
0.411000	723.188141	944.640778
0.412000	724.461029	946.870728
0.413000	723.981537	947.033005
0.414000	724.620300	946.393875
0.415000	724.618958	946.394409
0.416000	724.618973	946.236938
0.417000	722.870560	946.075180
0.418000	723.982376	945.438736
0.419000	723.507683	946.554337
0.420000	722.712135	946.556335
0.421000	723.984024	947.511520
0.422000	723.346558	945.123505
0.423000	722.870087	946.243454
0.424000	723.983856	947.038330
0.425000	724.301910	946.716614
0.426000	722.870911	946.239609
0.427000	723.822601	946.880096
0.428000	722.869583	945.281128
0.429000	723.506851	946.874252
0.430000	723.664474	946.870743
0.431000	724.300766	946.875748
0.432000	724.619141	946.877060
0.433000	722.550522	946.400070
0.434000	722.869415	946.079010
0.435000	722.711807	945.917374
0.436000	723.347412	946.395065
0.437000	723.346573	944.641953
0.438000	724.460693	945.760788
0.439000	723.981689	946.077164
0.440000	723.187637	947.834274
0.441000	722.235123	945.915375
0.442000	724.299927	946.714951
0.443000	723.822754	946.876053
0.444000	723.823914	946.237762
0.445000	723.826920	945.285446
0.446000	724.301407	945.441238
0.447000	724.141800	945.761108
0.448000	722.552185	945.282089
0.449000	723.507187	946.878723
0.450000	723.504364	946.559692
0.451000	724.620300	946.242630
0.452000	723.505188	945.444382
0.453000	723.981216	947.993393
0.454000	724.301590	946.075653
0.455000	724.777420	946.877075
0.456000	723.982193	946.401413
0.457000	724.143616	946.872391
0.458000	723.980698	945.917038
0.459000	723.984344	946.717957
0.460000	725.096146	946.870911
0.461000	724.938690	947.032852
0.462000	725.572479	945.923065
0.463000	724.140152	947.359589
0.464000	723.982697	946.878738
0.465000	724.935364	946.241608
0.466000	724.618332	946.077332
0.467000	724.458878	946.714279
0.468000	724.936203	946.552689
0.469000	723.664307	946.716797
0.470000	723.505539	946.878250
0.471000	725.253937	946.708755
0.472000	724.458221	945.918045
0.473000	723.983215	947.352417
0.474000	724.617981	946.723343
0.475000	724.777100	947.196442
0.476000	725.412552	946.401917
0.477000	724.776093	946.874252
0.478000	724.934235	947.191803
0.479000	724.936203	946.398239
0.480000	726.207260	946.397064
0.481000	723.983353	947.828415
0.482000	725.253250	946.401398
0.483000	726.208939	947.993713
0.484000	725.571991	946.399918
0.485000	726.207108	945.763779
0.486000	724.459045	946.082016
0.487000	725.093826	946.876068
0.488000	725.413727	946.556168
0.489000	726.525681	946.876724
0.490000	726.368546	947.200165
0.491000	726.046997	946.555847
0.492000	725.889038	946.557831
0.493000	726.207794	946.241104
0.494000	727.161453	944.956512
0.495000	726.364563	946.397064
0.496000	726.525009	946.872711
0.497000	727.161148	947.513199
0.498000	726.843048	946.553009
0.499000	726.524841	947.038330
0.500000	726.683960	946.557831
0.501000	726.684448	946.080841
0.502000	727.797577	946.719452
0.503000	726.843567	947.195480
0.504000	725.889221	946.074509
0.505000	727.957504	946.715302
0.506000	727.956696	947.677338
0.507000	727.001526	947.191803
0.508000	727.798233	947.831406
0.509000	726.525330	948.311798
0.510000	727.638138	946.561020
0.511000	727.479675	947.513504
0.512000	728.116791	947.035690
0.513000	726.526810	946.873566
0.514000	726.684799	947.352554
0.515000	727.480347	948.314453
0.516000	726.366226	947.671814
0.517000	726.526184	947.673645
0.518000	726.844391	945.445053
0.519000	726.526169	946.716797
0.520000	725.255264	948.314804
0.521000	726.686279	947.673965
0.522000	727.004013	946.558670
0.523000	726.050659	948.308258
0.524000	726.527496	947.839279
0.525000	725.095001	947.195145
0.526000	726.049164	947.516541
0.527000	724.778763	947.514709
0.528000	725.414383	946.880615
0.529000	725.414032	948.631348
0.530000	724.936707	947.675156
0.531000	725.573807	947.514709
0.532000	724.939011	947.832748
0.533000	724.300079	946.726334
0.534000	723.826080	947.993225
0.535000	725.414047	948.150803
0.536000	724.460861	948.951752
0.537000	724.302246	948.793289
0.538000	723.506691	947.991516
0.539000	723.825241	947.516052
0.540000	724.618820	946.883591
0.541000	723.983688	947.837463
0.542000	723.984207	946.563721
0.543000	723.346092	948.155014
0.544000	725.096634	946.565536
0.545000	724.142624	948.155518
0.546000	723.665138	947.203171
0.547000	723.347565	947.043716
0.548000	722.711624	947.839111
0.549000	723.506371	948.158356
0.550000	722.392563	944.968719
0.551000	721.756966	947.355743
0.552000	723.189964	947.198151
0.553000	722.551025	946.245819
0.554000	723.029854	947.516388
0.555000	723.824265	947.678833
0.556000	723.665985	947.519241
0.557000	723.505699	946.404770
0.558000	722.393074	947.517899
0.559000	723.824074	947.041901
0.560000	723.346092	946.089737
0.561000	724.460037	947.042374
0.562000	724.616829	945.612869
0.563000	722.869072	945.766647
0.564000	724.301750	947.356934
0.565000	723.665634	946.887939
0.566000	723.984016	947.043900
0.567000	724.777267	945.608902
0.568000	724.778595	946.247330
0.569000	724.618645	946.407623
0.570000	724.776283	945.131027
0.571000	725.256264	946.246674
0.572000	726.210434	945.290161
0.573000	725.253281	945.134369
0.574000	725.254440	946.086548
0.575000	725.571831	946.723663
0.576000	725.414375	945.768646
0.577000	725.731773	946.087555
0.578000	726.049820	946.248672
0.579000	726.049156	945.605515
0.580000	726.367378	945.769836
0.581000	725.889885	945.928772
0.582000	727.163445	944.175339
0.583000	726.684937	945.769653
0.584000	726.367233	946.085739
0.585000	725.096138	945.926941
0.586000	727.638626	945.772675
0.587000	725.733261	947.207382
0.588000	726.526352	946.890640
0.589000	727.004021	945.299362
0.590000	726.526337	946.726517
0.591000	725.891373	946.411987
0.592000	726.684952	946.091400
0.593000	726.210617	946.250000
0.594000	727.799210	945.773010
0.595000	727.164276	945.774490
0.596000	725.892380	946.729889
0.597000	726.687439	945.776367
0.598000	725.571487	946.091873
0.599000	726.209763	947.049591
0.600000	725.890884	946.092728
0.601000	726.527664	946.407776
0.602000	724.938377	946.251495
0.603000	725.256416	945.614059
0.604000	726.367218	945.456619
0.605000	725.415039	946.097778
0.606000	724.938370	947.367996
